Thayer School of Engineering        Instron 4442 Mechanical Testing System
7/9/2018 2:41:34 AM

  Force (N)	Extension (mm)	Not Used	Not Used	Not Used	     Hour	    Minute	    Second
    0.1297 	    2.0500 	    2.0000 	   42.0000 	    1.2157 
    0.4196 	    2.1160 	    2.0000 	   42.0000 	    1.2487 
    0.5417 	    2.2420 	    2.0000 	   42.0000 	    1.3117 
    0.5112 	    2.3580 	    2.0000 	   42.0000 	    1.3697 
    0.5112 	    2.4640 	    2.0000 	   42.0000 	    1.4227 
    0.5112 	    2.5260 	    2.0000 	   42.0000 	    1.4537 
    0.4501 	    2.5860 	    2.0000 	   42.0000 	    1.4837 
    0.3281 	    2.6560 	    2.0000 	   42.0000 	    1.5187 
    0.5722 	    2.7700 	    2.0000 	   42.0000 	    1.5757 
    0.4807 	    2.8800 	    2.0000 	   42.0000 	    1.6307 
    0.4349 	    2.9820 	    2.0000 	   42.0000 	    1.6817 
    0.3891 	    3.0920 	    2.0000 	   42.0000 	    1.7367 
    0.4349 	    3.1980 	    2.0000 	   42.0000 	    1.7897 
    0.4501 	    3.2640 	    2.0000 	   42.0000 	    1.8227 
    0.5570 	    3.3300 	    2.0000 	   42.0000 	    1.8557 
    0.3586 	    3.4480 	    2.0000 	   42.0000 	    1.9147 
    0.2976 	    3.5520 	    2.0000 	   42.0000 	    1.9667 
    0.3738 	    3.6640 	    2.0000 	   42.0000 	    2.0227 
    0.4807 	    3.7660 	    2.0000 	   42.0000 	    2.0738 
    0.4349 	    3.8640 	    2.0000 	   42.0000 	    2.1228 
    0.5112 	    3.9640 	    2.0000 	   42.0000 	    2.1728 
    0.5570 	    4.0620 	    2.0000 	   42.0000 	    2.2218 
    0.5570 	    4.1700 	    2.0000 	   42.0000 	    2.2758 
    0.6332 	    4.2760 	    2.0000 	   42.0000 	    2.3288 
    0.4349 	    4.3340 	    2.0000 	   42.0000 	    2.3578 
    0.5875 	    4.3960 	    2.0000 	   42.0000 	    2.3888 
    0.3586 	    4.5140 	    2.0000 	   42.0000 	    2.4478 
    0.4654 	    4.6180 	    2.0000 	   42.0000 	    2.4998 
    0.5417 	    4.7280 	    2.0000 	   42.0000 	    2.5548 
    0.4044 	    4.8320 	    2.0000 	   42.0000 	    2.6068 
    0.3281 	    4.9000 	    2.0000 	   42.0000 	    2.6408 
    0.6027 	    5.0220 	    2.0000 	   42.0000 	    2.7018 
    0.4807 	    5.1280 	    2.0000 	   42.0000 	    2.7548 
    0.4959 	    5.2280 	    2.0000 	   42.0000 	    2.8048 
    0.5112 	    5.3280 	    2.0000 	   42.0000 	    2.8548 
    0.3433 	    5.3960 	    2.0000 	   42.0000 	    2.8888 
    0.6332 	    5.4640 	    2.0000 	   42.0000 	    2.9228 
    0.3738 	    5.5820 	    2.0000 	   42.0000 	    2.9818 
    0.4044 	    5.6840 	    2.0000 	   42.0000 	    3.0328 
    0.6485 	    5.7940 	    2.0000 	   42.0000 	    3.0878 
    0.3433 	    5.8640 	    2.0000 	   42.0000 	    3.1228 
    0.6638 	    5.9860 	    2.0000 	   42.0000 	    3.1838 
    0.4807 	    6.0920 	    2.0000 	   42.0000 	    3.2368 
    0.4196 	    6.2080 	    2.0000 	   42.0000 	    3.2948 
    0.4196 	    6.3260 	    2.0000 	   42.0000 	    3.3538 
    0.4501 	    6.3940 	    2.0000 	   42.0000 	    3.3878 
    0.5417 	    6.4580 	    2.0000 	   42.0000 	    3.4198 
    0.6027 	    6.5220 	    2.0000 	   42.0000 	    3.4518 
    0.5722 	    6.5840 	    2.0000 	   42.0000 	    3.4828 
    0.5570 	    6.6460 	    2.0000 	   42.0000 	    3.5138 
    0.5112 	    6.7120 	    2.0000 	   42.0000 	    3.5468 
    0.5417 	    6.7720 	    2.0000 	   42.0000 	    3.5768 
    0.6180 	    6.8380 	    2.0000 	   42.0000 	    3.6098 
    0.5417 	    6.9040 	    2.0000 	   42.0000 	    3.6428 
    0.4959 	    6.9700 	    2.0000 	   42.0000 	    3.6758 
    0.6180 	    7.0320 	    2.0000 	   42.0000 	    3.7068 
    0.5112 	    7.0940 	    2.0000 	   42.0000 	    3.7378 
    0.6790 	    7.1600 	    2.0000 	   42.0000 	    3.7708 
    0.5570 	    7.2280 	    2.0000 	   42.0000 	    3.8049 
    0.4959 	    7.2960 	    2.0000 	   42.0000 	    3.8389 
    0.4807 	    7.3600 	    2.0000 	   42.0000 	    3.8709 
    0.5112 	    7.4220 	    2.0000 	   42.0000 	    3.9019 
    0.6485 	    7.4880 	    2.0000 	   42.0000 	    3.9349 
    0.4959 	    7.5500 	    2.0000 	   42.0000 	    3.9659 
    0.4654 	    7.6120 	    2.0000 	   42.0000 	    3.9969 
    0.5417 	    7.6760 	    2.0000 	   42.0000 	    4.0289 
    0.5417 	    7.7420 	    2.0000 	   42.0000 	    4.0619 
    0.4959 	    7.8060 	    2.0000 	   42.0000 	    4.0939 
    0.5112 	    7.8720 	    2.0000 	   42.0000 	    4.1269 
    0.4044 	    7.9400 	    2.0000 	   42.0000 	    4.1609 
    0.5112 	    8.0080 	    2.0000 	   42.0000 	    4.1949 
    0.5570 	    8.0720 	    2.0000 	   42.0000 	    4.2269 
    0.4501 	    8.1460 	    2.0000 	   42.0000 	    4.2639 
    0.4349 	    8.2100 	    2.0000 	   42.0000 	    4.2959 
    0.4044 	    8.2780 	    2.0000 	   42.0000 	    4.3299 
    0.6180 	    8.3460 	    2.0000 	   42.0000 	    4.3639 
    0.4959 	    8.4140 	    2.0000 	   42.0000 	    4.3979 
    0.5112 	    8.4760 	    2.0000 	   42.0000 	    4.4289 
    0.6027 	    8.5420 	    2.0000 	   42.0000 	    4.4619 
    0.5112 	    8.6020 	    2.0000 	   42.0000 	    4.4919 
    0.4959 	    8.6660 	    2.0000 	   42.0000 	    4.5239 
    0.4959 	    8.7260 	    2.0000 	   42.0000 	    4.5539 
    0.3433 	    8.7860 	    2.0000 	   42.0000 	    4.5839 
    0.4654 	    8.8500 	    2.0000 	   42.0000 	    4.6159 
    0.6180 	    8.9380 	    2.0000 	   42.0000 	    4.6599 
    0.6180 	    8.9980 	    2.0000 	   42.0000 	    4.6899 
    0.6485 	    9.0640 	    2.0000 	   42.0000 	    4.7229 
    0.4044 	    9.1240 	    2.0000 	   42.0000 	    4.7529 
    0.6485 	    9.1900 	    2.0000 	   42.0000 	    4.7859 
    0.5722 	    9.2520 	    2.0000 	   42.0000 	    4.8169 
    0.5570 	    9.3100 	    2.0000 	   42.0000 	    4.8459 
    0.2518 	    9.3780 	    2.0000 	   42.0000 	    4.8799 
    0.4654 	    9.4420 	    2.0000 	   42.0000 	    4.9119 
    0.6180 	    9.5040 	    2.0000 	   42.0000 	    4.9429 
    0.5417 	    9.5700 	    2.0000 	   42.0000 	    4.9759 
    0.4501 	    9.6340 	    2.0000 	   42.0000 	    5.0079 
    0.6485 	    9.6940 	    2.0000 	   42.0000 	    5.0379 
    0.6485 	    9.7620 	    2.0000 	   42.0000 	    5.0719 
    0.1907 	    9.8220 	    2.0000 	   42.0000 	    5.1019 
    0.4349 	    9.8880 	    2.0000 	   42.0000 	    5.1349 
    0.4349 	   10.0100 	    2.0000 	   42.0000 	    5.1959 
    0.6485 	   10.0700 	    2.0000 	   42.0000 	    5.2259 
    0.6027 	   10.1400 	    2.0000 	   42.0000 	    5.2609 
    0.5417 	   10.2000 	    2.0000 	   42.0000 	    5.2909 
    0.5875 	   10.2660 	    2.0000 	   42.0000 	    5.3239 
    0.5417 	   10.3340 	    2.0000 	   42.0000 	    5.3579 
    0.6638 	   10.3940 	    2.0000 	   42.0000 	    5.3879 
    0.4959 	   10.4540 	    2.0000 	   42.0000 	    5.4179 
    0.2976 	   10.5140 	    2.0000 	   42.0000 	    5.4479 
    0.4959 	   10.5740 	    2.0000 	   42.0000 	    5.4779 
    0.6180 	   10.6340 	    2.0000 	   42.0000 	    5.5079 
    0.5112 	   10.6940 	    2.0000 	   42.0000 	    5.5380 
    0.5570 	   10.7600 	    2.0000 	   42.0000 	    5.5710 
    0.6180 	   10.8200 	    2.0000 	   42.0000 	    5.6010 
    0.5875 	   10.8780 	    2.0000 	   42.0000 	    5.6300 
    0.5417 	   10.9460 	    2.0000 	   42.0000 	    5.6640 
    0.5722 	   11.0080 	    2.0000 	   42.0000 	    5.6950 
    0.6027 	   11.0700 	    2.0000 	   42.0000 	    5.7260 
    0.5112 	   11.1360 	    2.0000 	   42.0000 	    5.7590 
    0.3128 	   11.1980 	    2.0000 	   42.0000 	    5.7900 
    0.4959 	   11.2600 	    2.0000 	   42.0000 	    5.8210 
    0.5264 	   11.3200 	    2.0000 	   42.0000 	    5.8510 
    0.5264 	   11.3840 	    2.0000 	   42.0000 	    5.8830 
    0.6332 	   11.4420 	    2.0000 	   42.0000 	    5.9110 
    0.6027 	   11.5000 	    2.0000 	   42.0000 	    5.9410 
    0.6638 	   11.5700 	    2.0000 	   42.0000 	    5.9760 
    0.7401 	   11.6300 	    2.0000 	   42.0000 	    6.0060 
    0.5417 	   11.6920 	    2.0000 	   42.0000 	    6.0370 
    0.3586 	   11.8160 	    2.0000 	   42.0000 	    6.0990 
    0.5570 	   11.8740 	    2.0000 	   42.0000 	    6.1280 
    0.4807 	   11.9420 	    2.0000 	   42.0000 	    6.1620 
    0.5875 	   12.0060 	    2.0000 	   42.0000 	    6.1940 
    0.5264 	   12.0680 	    2.0000 	   42.0000 	    6.2250 
    0.5264 	   12.1360 	    2.0000 	   42.0000 	    6.2590 
    0.4501 	   12.1980 	    2.0000 	   42.0000 	    6.2900 
    0.6332 	   12.2600 	    2.0000 	   42.0000 	    6.3210 
    0.6943 	   12.3180 	    2.0000 	   42.0000 	    6.3500 
    0.6485 	   12.3840 	    2.0000 	   42.0000 	    6.3830 
    0.6180 	   12.4420 	    2.0000 	   42.0000 	    6.4120 
    0.5417 	   12.5000 	    2.0000 	   42.0000 	    6.4410 
    0.5112 	   12.5640 	    2.0000 	   42.0000 	    6.4730 
    0.6180 	   12.6240 	    2.0000 	   42.0000 	    6.5030 
    0.5417 	   12.6840 	    2.0000 	   42.0000 	    6.5330 
    0.5875 	   12.7520 	    2.0000 	   42.0000 	    6.5670 
    0.6485 	   12.8100 	    2.0000 	   42.0000 	    6.5960 
    0.5417 	   12.8720 	    2.0000 	   42.0000 	    6.6270 
    0.6180 	   12.9400 	    2.0000 	   42.0000 	    6.6610 
    0.7095 	   13.0000 	    2.0000 	   42.0000 	    6.6910 
    0.5570 	   13.0580 	    2.0000 	   42.0000 	    6.7200 
    0.5875 	   13.1260 	    2.0000 	   42.0000 	    6.7540 
    0.6180 	   13.1860 	    2.0000 	   42.0000 	    6.7840 
    0.5417 	   13.2460 	    2.0000 	   42.0000 	    6.8140 
    0.6027 	   13.3080 	    2.0000 	   42.0000 	    6.8450 
    0.5570 	   13.3760 	    2.0000 	   42.0000 	    6.8790 
    0.6943 	   13.4400 	    2.0000 	   42.0000 	    6.9110 
    0.5722 	   13.4980 	    2.0000 	   42.0000 	    6.9400 
    0.4501 	   13.5660 	    2.0000 	   42.0000 	    6.9740 
    0.6180 	   13.6280 	    2.0000 	   42.0000 	    7.0050 
    0.7248 	   13.6860 	    2.0000 	   42.0000 	    7.0340 
    0.5417 	   13.7560 	    2.0000 	   42.0000 	    7.0690 
    0.5570 	   13.8160 	    2.0000 	   42.0000 	    7.0990 
    0.5722 	   13.8780 	    2.0000 	   42.0000 	    7.1300 
    0.6485 	   13.9460 	    2.0000 	   42.0000 	    7.1640 
    0.4959 	   14.0100 	    2.0000 	   42.0000 	    7.1960 
    0.3433 	   14.0720 	    2.0000 	   42.0000 	    7.2270 
    0.6180 	   14.1420 	    2.0000 	   42.0000 	    7.2620 
    0.4196 	   14.2060 	    2.0000 	   42.0000 	    7.2941 
    0.4501 	   14.2680 	    2.0000 	   42.0000 	    7.3251 
    0.6332 	   14.3340 	    2.0000 	   42.0000 	    7.3581 
    0.6180 	   14.3960 	    2.0000 	   42.0000 	    7.3891 
    0.6027 	   14.4580 	    2.0000 	   42.0000 	    7.4201 
    0.6638 	   14.5180 	    2.0000 	   42.0000 	    7.4501 
    0.5264 	   14.5840 	    2.0000 	   42.0000 	    7.4831 
    0.5875 	   14.6500 	    2.0000 	   42.0000 	    7.5161 
    0.6638 	   14.7100 	    2.0000 	   42.0000 	    7.5461 
    0.6180 	   14.7740 	    2.0000 	   42.0000 	    7.5781 
    0.6180 	   14.8360 	    2.0000 	   42.0000 	    7.6091 
    0.7401 	   14.9040 	    2.0000 	   42.0000 	    7.6431 
    0.7095 	   14.9620 	    2.0000 	   42.0000 	    7.6721 
    0.6943 	   15.0200 	    2.0000 	   42.0000 	    7.7011 
    0.7248 	   15.0840 	    2.0000 	   42.0000 	    7.7331 
    0.6180 	   15.1520 	    2.0000 	   42.0000 	    7.7671 
    0.7401 	   15.2140 	    2.0000 	   42.0000 	    7.7981 
    0.6638 	   15.2760 	    2.0000 	   42.0000 	    7.8291 
    0.6638 	   15.3460 	    2.0000 	   42.0000 	    7.8641 
    0.7858 	   15.4040 	    2.0000 	   42.0000 	    7.8931 
    0.5875 	   15.4620 	    2.0000 	   42.0000 	    7.9221 
    0.6332 	   15.5340 	    2.0000 	   42.0000 	    7.9581 
    0.7553 	   15.5940 	    2.0000 	   42.0000 	    7.9881 
    0.8469 	   15.6540 	    2.0000 	   42.0000 	    8.0181 
    0.6027 	   15.7120 	    2.0000 	   42.0000 	    8.0471 
    0.6790 	   15.8460 	    2.0000 	   42.0000 	    8.1141 
    0.6638 	   15.9020 	    2.0000 	   42.0000 	    8.1421 
    0.7553 	   15.9720 	    2.0000 	   42.0000 	    8.1771 
    0.6638 	   16.0360 	    2.0000 	   42.0000 	    8.2091 
    0.6332 	   16.0960 	    2.0000 	   42.0000 	    8.2391 
    0.6027 	   16.1640 	    2.0000 	   42.0000 	    8.2731 
    0.6943 	   16.2260 	    2.0000 	   42.0000 	    8.3041 
    0.7095 	   16.2860 	    2.0000 	   42.0000 	    8.3341 
    0.6027 	   16.3580 	    2.0000 	   42.0000 	    8.3701 
    0.7095 	   16.4200 	    2.0000 	   42.0000 	    8.4011 
    0.8011 	   16.4820 	    2.0000 	   42.0000 	    8.4321 
    0.8316 	   16.5500 	    2.0000 	   42.0000 	    8.4661 
    0.6790 	   16.6120 	    2.0000 	   42.0000 	    8.4971 
    0.4959 	   16.6760 	    2.0000 	   42.0000 	    8.5291 
    0.5875 	   16.7460 	    2.0000 	   42.0000 	    8.5641 
    0.7706 	   16.8100 	    2.0000 	   42.0000 	    8.5961 
    0.7858 	   16.8760 	    2.0000 	   42.0000 	    8.6291 
    0.6180 	   16.9460 	    2.0000 	   42.0000 	    8.6641 
    0.7095 	   17.0120 	    2.0000 	   42.0000 	    8.6971 
    0.3586 	   17.0740 	    2.0000 	   42.0000 	    8.7281 
    0.6180 	   17.1460 	    2.0000 	   42.0000 	    8.7641 
    0.5417 	   17.2100 	    2.0000 	   42.0000 	    8.7961 
    0.5722 	   17.2680 	    2.0000 	   42.0000 	    8.8251 
    0.6332 	   17.3300 	    2.0000 	   42.0000 	    8.8561 
    0.7095 	   17.3960 	    2.0000 	   42.0000 	    8.8891 
    0.5722 	   17.4560 	    2.0000 	   42.0000 	    8.9191 
    0.7095 	   17.5180 	    2.0000 	   42.0000 	    8.9501 
    0.6638 	   17.5780 	    2.0000 	   42.0000 	    8.9801 
    0.6027 	   17.6480 	    2.0000 	   42.0000 	    9.0151 
    0.6790 	   17.7100 	    2.0000 	   42.0000 	    9.0462 
    0.5875 	   17.7700 	    2.0000 	   42.0000 	    9.0762 
    0.7553 	   17.8300 	    2.0000 	   42.0000 	    9.1062 
    0.5722 	   17.9020 	    2.0000 	   42.0000 	    9.1422 
    0.6332 	   17.9720 	    2.0000 	   42.0000 	    9.1772 
    0.8011 	   18.0340 	    2.0000 	   42.0000 	    9.2082 
    0.5875 	   18.0980 	    2.0000 	   42.0000 	    9.2402 
    0.6790 	   18.1680 	    2.0000 	   42.0000 	    9.2752 
    0.7095 	   18.2300 	    2.0000 	   42.0000 	    9.3062 
    0.6638 	   18.2920 	    2.0000 	   42.0000 	    9.3372 
    0.7706 	   18.3560 	    2.0000 	   42.0000 	    9.3692 
    0.6332 	   18.4260 	    2.0000 	   42.0000 	    9.4042 
    0.6027 	   18.4860 	    2.0000 	   42.0000 	    9.4342 
    0.3891 	   18.5500 	    2.0000 	   42.0000 	    9.4662 
    0.6790 	   18.6080 	    2.0000 	   42.0000 	    9.4952 
    0.6485 	   18.6820 	    2.0000 	   42.0000 	    9.5322 
    0.6790 	   18.7520 	    2.0000 	   42.0000 	    9.5672 
    0.6943 	   18.8140 	    2.0000 	   42.0000 	    9.5982 
    0.6332 	   18.8820 	    2.0000 	   42.0000 	    9.6322 
    0.7095 	   18.9460 	    2.0000 	   42.0000 	    9.6642 
    0.5417 	   19.0100 	    2.0000 	   42.0000 	    9.6962 
    0.6027 	   19.0740 	    2.0000 	   42.0000 	    9.7282 
    0.6332 	   19.1480 	    2.0000 	   42.0000 	    9.7652 
    0.7706 	   19.2080 	    2.0000 	   42.0000 	    9.7952 
    0.6943 	   19.2700 	    2.0000 	   42.0000 	    9.8262 
    0.6638 	   19.3300 	    2.0000 	   42.0000 	    9.8562 
    0.7095 	   19.4020 	    2.0000 	   42.0000 	    9.8922 
    0.9079 	   19.4640 	    2.0000 	   42.0000 	    9.9232 
    0.8011 	   19.5260 	    2.0000 	   42.0000 	    9.9542 
    0.7401 	   19.5900 	    2.0000 	   42.0000 	    9.9862 
    0.7706 	   19.6600 	    2.0000 	   42.0000 	   10.0212 
    0.7553 	   19.7240 	    2.0000 	   42.0000 	   10.0532 
    0.6638 	   19.7860 	    2.0000 	   42.0000 	   10.0842 
    0.6332 	   19.8480 	    2.0000 	   42.0000 	   10.1152 
    0.7248 	   19.9120 	    2.0000 	   42.0000 	   10.1472 
    0.6027 	   19.9760 	    2.0000 	   42.0000 	   10.1792 
    0.5570 	   20.0340 	    2.0000 	   42.0000 	   10.2082 
    0.6790 	   20.0960 	    2.0000 	   42.0000 	   10.2392 
    0.7095 	   20.1620 	    2.0000 	   42.0000 	   10.2722 
    0.8011 	   20.2240 	    2.0000 	   42.0000 	   10.3032 
    0.6943 	   20.2880 	    2.0000 	   42.0000 	   10.3352 
    0.6790 	   20.3500 	    2.0000 	   42.0000 	   10.3662 
    0.7095 	   20.4160 	    2.0000 	   42.0000 	   10.3992 
    0.6943 	   20.4800 	    2.0000 	   42.0000 	   10.4312 
    0.6332 	   20.5420 	    2.0000 	   42.0000 	   10.4622 
    0.7401 	   20.6020 	    2.0000 	   42.0000 	   10.4922 
    0.6332 	   20.6740 	    2.0000 	   42.0000 	   10.5282 
    0.5112 	   20.7380 	    2.0000 	   42.0000 	   10.5602 
    0.7095 	   20.7960 	    2.0000 	   42.0000 	   10.5892 
    0.6790 	   20.8580 	    2.0000 	   42.0000 	   10.6202 
    0.7401 	   20.9340 	    2.0000 	   42.0000 	   10.6582 
    0.6332 	   20.9940 	    2.0000 	   42.0000 	   10.6882 
    0.8316 	   21.0580 	    2.0000 	   42.0000 	   10.7202 
    0.6943 	   21.1200 	    2.0000 	   42.0000 	   10.7512 
    0.5570 	   21.1880 	    2.0000 	   42.0000 	   10.7852 
    0.6943 	   21.2480 	    2.0000 	   42.0000 	   10.8153 
    0.6638 	   21.3140 	    2.0000 	   42.0000 	   10.8483 
    0.6790 	   21.3800 	    2.0000 	   42.0000 	   10.8813 
    0.9232 	   21.4460 	    2.0000 	   42.0000 	   10.9143 
    0.6790 	   21.5120 	    2.0000 	   42.0000 	   10.9473 
    0.5722 	   21.5760 	    2.0000 	   42.0000 	   10.9793 
    0.8011 	   21.6460 	    2.0000 	   42.0000 	   11.0143 
    0.4807 	   21.7080 	    2.0000 	   42.0000 	   11.0453 
    0.6790 	   21.7700 	    2.0000 	   42.0000 	   11.0763 
    0.7858 	   21.8300 	    2.0000 	   42.0000 	   11.1063 
    0.6638 	   21.8960 	    2.0000 	   42.0000 	   11.1393 
    0.7248 	   21.9580 	    2.0000 	   42.0000 	   11.1703 
    0.6485 	   22.0220 	    2.0000 	   42.0000 	   11.2023 
    0.8164 	   22.0840 	    2.0000 	   42.0000 	   11.2333 
    0.6332 	   22.1560 	    2.0000 	   42.0000 	   11.2693 
    0.7095 	   22.2180 	    2.0000 	   42.0000 	   11.3003 
    0.6790 	   22.2800 	    2.0000 	   42.0000 	   11.3313 
    0.7401 	   22.3440 	    2.0000 	   42.0000 	   11.3633 
    0.6485 	   22.4040 	    2.0000 	   42.0000 	   11.3933 
    0.6638 	   22.4660 	    2.0000 	   42.0000 	   11.4243 
    0.7095 	   22.5300 	    2.0000 	   42.0000 	   11.4563 
    0.4044 	   22.5940 	    2.0000 	   42.0000 	   11.4883 
    0.8774 	   22.6640 	    2.0000 	   42.0000 	   11.5233 
    0.7401 	   22.7240 	    2.0000 	   42.0000 	   11.5533 
    0.8316 	   22.7820 	    2.0000 	   42.0000 	   11.5823 
    0.5570 	   22.8500 	    2.0000 	   42.0000 	   11.6163 
    0.8164 	   22.9160 	    2.0000 	   42.0000 	   11.6493 
    0.6485 	   22.9780 	    2.0000 	   42.0000 	   11.6803 
    0.7858 	   23.0440 	    2.0000 	   42.0000 	   11.7133 
    0.8774 	   23.1080 	    2.0000 	   42.0000 	   11.7453 
    0.8164 	   23.1780 	    2.0000 	   42.0000 	   11.7803 
    0.7401 	   23.2420 	    2.0000 	   42.0000 	   11.8123 
    0.6485 	   23.3040 	    2.0000 	   42.0000 	   11.8433 
    0.8621 	   23.3680 	    2.0000 	   42.0000 	   11.8753 
    0.7095 	   23.4340 	    2.0000 	   42.0000 	   11.9083 
    0.6790 	   23.5000 	    2.0000 	   42.0000 	   11.9413 
    0.7553 	   23.5620 	    2.0000 	   42.0000 	   11.9723 
    0.8011 	   23.6280 	    2.0000 	   42.0000 	   12.0053 
    0.9232 	   23.6920 	    2.0000 	   42.0000 	   12.0373 
    0.9079 	   23.7500 	    2.0000 	   42.0000 	   12.0663 
    0.8011 	   23.8160 	    2.0000 	   42.0000 	   12.0993 
    0.6638 	   23.8820 	    2.0000 	   42.0000 	   12.1323 
    0.8469 	   23.9480 	    2.0000 	   42.0000 	   12.1653 
    0.7401 	   24.0080 	    2.0000 	   42.0000 	   12.1953 
    0.5722 	   24.0660 	    2.0000 	   42.0000 	   12.2243 
    0.7706 	   24.1380 	    2.0000 	   42.0000 	   12.2593 
    0.8621 	   24.2000 	    2.0000 	   42.0000 	   12.2913 
    0.9384 	   24.2620 	    2.0000 	   42.0000 	   12.3223 
    0.6790 	   24.3260 	    2.0000 	   42.0000 	   12.3543 
    0.6180 	   24.3880 	    2.0000 	   42.0000 	   12.3853 
    0.8621 	   24.4480 	    2.0000 	   42.0000 	   12.4153 
    0.6027 	   24.5140 	    2.0000 	   42.0000 	   12.4483 
    0.7553 	   24.5780 	    2.0000 	   42.0000 	   12.4803 
    0.7248 	   24.6500 	    2.0000 	   42.0000 	   12.5163 
    0.8621 	   24.7120 	    2.0000 	   42.0000 	   12.5474 
