Thayer School of Engineering        Instron 4442 Mechanical Testing System
7/5/2018 4:39:26 AM

  Force (N)	Extension (mm)	Not Used	Not Used	Not Used	     Hour	    Minute	    Second
    1.4420 	    1.0250 	    4.0000 	   39.0000 	   54.9713 
    1.3199 	    1.0560 	    4.0000 	   39.0000 	   55.0023 
    1.3046 	    1.1260 	    4.0000 	   39.0000 	   55.0723 
    1.2894 	    1.1850 	    4.0000 	   39.0000 	   55.1313 
    1.3657 	    1.2150 	    4.0000 	   39.0000 	   55.1613 
    1.2589 	    1.2420 	    4.0000 	   39.0000 	   55.1883 
    1.2741 	    1.2960 	    4.0000 	   39.0000 	   55.2423 
    1.2741 	    1.3480 	    4.0000 	   39.0000 	   55.2943 
    1.2436 	    1.3970 	    4.0000 	   39.0000 	   55.3433 
    1.3504 	    1.4280 	    4.0000 	   39.0000 	   55.3743 
    1.3504 	    1.4830 	    4.0000 	   39.0000 	   55.4293 
    1.3046 	    1.5330 	    4.0000 	   39.0000 	   55.4793 
    1.2894 	    1.5620 	    4.0000 	   39.0000 	   55.5084 
    1.3199 	    1.6160 	    4.0000 	   39.0000 	   55.5624 
    1.4115 	    1.6450 	    4.0000 	   39.0000 	   55.5914 
    1.4572 	    1.6750 	    4.0000 	   39.0000 	   55.6214 
    1.4878 	    1.7310 	    4.0000 	   39.0000 	   55.6774 
    1.3199 	    1.7820 	    4.0000 	   39.0000 	   55.7284 
    1.3809 	    1.8120 	    4.0000 	   39.0000 	   55.7584 
    1.3504 	    1.8660 	    4.0000 	   39.0000 	   55.8124 
    1.6251 	    1.9160 	    4.0000 	   39.0000 	   55.8624 
    1.5335 	    1.9650 	    4.0000 	   39.0000 	   55.9114 
    1.3199 	    2.0160 	    4.0000 	   39.0000 	   55.9624 
    1.3504 	    2.0660 	    4.0000 	   39.0000 	   56.0124 
    1.3199 	    2.1230 	    4.0000 	   39.0000 	   56.0694 
    1.3504 	    2.1750 	    4.0000 	   39.0000 	   56.1214 
    1.3809 	    2.2280 	    4.0000 	   39.0000 	   56.1744 
    1.3809 	    2.2770 	    4.0000 	   39.0000 	   56.2234 
    1.6251 	    2.3260 	    4.0000 	   39.0000 	   56.2724 
    1.4115 	    2.3550 	    4.0000 	   39.0000 	   56.3014 
    1.6098 	    2.4100 	    4.0000 	   39.0000 	   56.3564 
    1.3504 	    2.4630 	    4.0000 	   39.0000 	   56.4094 
    1.5183 	    2.5180 	    4.0000 	   39.0000 	   56.4644 
    1.3199 	    2.5710 	    4.0000 	   39.0000 	   56.5174 
    1.3352 	    2.6250 	    4.0000 	   39.0000 	   56.5714 
    1.4725 	    2.6760 	    4.0000 	   39.0000 	   56.6224 
    1.4115 	    2.7320 	    4.0000 	   39.0000 	   56.6784 
    1.5030 	    2.7830 	    4.0000 	   39.0000 	   56.7294 
    1.4878 	    2.8340 	    4.0000 	   39.0000 	   56.7804 
    1.4725 	    2.8860 	    4.0000 	   39.0000 	   56.8324 
    1.5793 	    2.9190 	    4.0000 	   39.0000 	   56.8654 
    1.6251 	    2.9510 	    4.0000 	   39.0000 	   56.8974 
    1.4115 	    3.0090 	    4.0000 	   39.0000 	   56.9554 
    1.5030 	    3.0410 	    4.0000 	   39.0000 	   56.9874 
    1.4267 	    3.0980 	    4.0000 	   39.0000 	   57.0444 
    1.4878 	    3.1570 	    4.0000 	   39.0000 	   57.1034 
    1.4878 	    3.1860 	    4.0000 	   39.0000 	   57.1324 
    1.5030 	    3.2150 	    4.0000 	   39.0000 	   57.1614 
    1.5183 	    3.2430 	    4.0000 	   39.0000 	   57.1894 
    1.4725 	    3.2700 	    4.0000 	   39.0000 	   57.2164 
    1.5488 	    3.2970 	    4.0000 	   39.0000 	   57.2434 
    1.6403 	    3.3240 	    4.0000 	   39.0000 	   57.2705 
    1.4878 	    3.3520 	    4.0000 	   39.0000 	   57.2985 
    1.5030 	    3.4060 	    4.0000 	   39.0000 	   57.3525 
    1.5488 	    3.4350 	    4.0000 	   39.0000 	   57.3815 
    1.5946 	    3.4650 	    4.0000 	   39.0000 	   57.4115 
    1.5946 	    3.4970 	    4.0000 	   39.0000 	   57.4435 
    1.5183 	    3.5300 	    4.0000 	   39.0000 	   57.4765 
    1.4115 	    3.5600 	    4.0000 	   39.0000 	   57.5065 
    1.4572 	    3.5950 	    4.0000 	   39.0000 	   57.5415 
    1.4420 	    3.6270 	    4.0000 	   39.0000 	   57.5735 
    1.5793 	    3.6600 	    4.0000 	   39.0000 	   57.6065 
    1.6098 	    3.6920 	    4.0000 	   39.0000 	   57.6385 
    1.5030 	    3.7270 	    4.0000 	   39.0000 	   57.6735 
    1.6251 	    3.7600 	    4.0000 	   39.0000 	   57.7065 
    1.5946 	    3.7960 	    4.0000 	   39.0000 	   57.7425 
    1.4267 	    3.8280 	    4.0000 	   39.0000 	   57.7745 
    1.4267 	    3.8610 	    4.0000 	   39.0000 	   57.8075 
    1.6403 	    3.8940 	    4.0000 	   39.0000 	   57.8405 
    1.5946 	    3.9260 	    4.0000 	   39.0000 	   57.8725 
    1.5030 	    3.9580 	    4.0000 	   39.0000 	   57.9045 
    1.5335 	    3.9900 	    4.0000 	   39.0000 	   57.9365 
    1.5183 	    4.0260 	    4.0000 	   39.0000 	   57.9725 
    1.6709 	    4.0560 	    4.0000 	   39.0000 	   58.0025 
    1.3504 	    4.0860 	    4.0000 	   39.0000 	   58.0325 
    1.6251 	    4.1160 	    4.0000 	   39.0000 	   58.0625 
    1.5640 	    4.1750 	    4.0000 	   39.0000 	   58.1215 
    1.5335 	    4.2050 	    4.0000 	   39.0000 	   58.1515 
    1.6251 	    4.2330 	    4.0000 	   39.0000 	   58.1795 
    1.5335 	    4.2600 	    4.0000 	   39.0000 	   58.2065 
    1.5946 	    4.2840 	    4.0000 	   39.0000 	   58.2305 
    1.7319 	    4.3120 	    4.0000 	   39.0000 	   58.2585 
    1.5640 	    4.3400 	    4.0000 	   39.0000 	   58.2865 
    1.4420 	    4.3980 	    4.0000 	   39.0000 	   58.3445 
    1.5183 	    4.4280 	    4.0000 	   39.0000 	   58.3745 
    1.4725 	    4.4610 	    4.0000 	   39.0000 	   58.4075 
    1.4725 	    4.4940 	    4.0000 	   39.0000 	   58.4405 
    1.4420 	    4.5260 	    4.0000 	   39.0000 	   58.4725 
    1.7166 	    4.5540 	    4.0000 	   39.0000 	   58.5005 
    1.5183 	    4.5860 	    4.0000 	   39.0000 	   58.5325 
    1.5793 	    4.6200 	    4.0000 	   39.0000 	   58.5665 
    1.4267 	    4.6490 	    4.0000 	   39.0000 	   58.5955 
    1.7472 	    4.6810 	    4.0000 	   39.0000 	   58.6275 
    1.6403 	    4.7110 	    4.0000 	   39.0000 	   58.6575 
    1.7472 	    4.7440 	    4.0000 	   39.0000 	   58.6905 
    1.5335 	    4.7760 	    4.0000 	   39.0000 	   58.7225 
    1.5946 	    4.8090 	    4.0000 	   39.0000 	   58.7555 
    1.5488 	    4.8400 	    4.0000 	   39.0000 	   58.7865 
    1.6861 	    4.8730 	    4.0000 	   39.0000 	   58.8195 
    1.6556 	    4.9030 	    4.0000 	   39.0000 	   58.8495 
    1.5946 	    4.9360 	    4.0000 	   39.0000 	   58.8825 
    1.4878 	    4.9710 	    4.0000 	   39.0000 	   58.9175 
    1.8235 	    5.0010 	    4.0000 	   39.0000 	   58.9475 
    1.6709 	    5.0340 	    4.0000 	   39.0000 	   58.9805 
    1.6709 	    5.0940 	    4.0000 	   39.0000 	   59.0406 
    1.6709 	    5.1200 	    4.0000 	   39.0000 	   59.0666 
    1.6861 	    5.1510 	    4.0000 	   39.0000 	   59.0976 
    1.4267 	    5.1800 	    4.0000 	   39.0000 	   59.1266 
    1.5640 	    5.2100 	    4.0000 	   39.0000 	   59.1566 
    1.7319 	    5.2350 	    4.0000 	   39.0000 	   59.1816 
    1.6709 	    5.2630 	    4.0000 	   39.0000 	   59.2096 
    1.6709 	    5.2880 	    4.0000 	   39.0000 	   59.2346 
    1.6556 	    5.3160 	    4.0000 	   39.0000 	   59.2626 
    1.6709 	    5.3440 	    4.0000 	   39.0000 	   59.2906 
    1.6709 	    5.3760 	    4.0000 	   39.0000 	   59.3226 
    1.6098 	    5.4080 	    4.0000 	   39.0000 	   59.3546 
    1.8692 	    5.4390 	    4.0000 	   39.0000 	   59.3856 
    1.7929 	    5.4720 	    4.0000 	   39.0000 	   59.4186 
    1.5335 	    5.5030 	    4.0000 	   39.0000 	   59.4496 
    1.6556 	    5.5320 	    4.0000 	   39.0000 	   59.4786 
    1.6403 	    5.5640 	    4.0000 	   39.0000 	   59.5106 
    1.6098 	    5.5950 	    4.0000 	   39.0000 	   59.5416 
    1.6098 	    5.6250 	    4.0000 	   39.0000 	   59.5716 
    1.5793 	    5.6550 	    4.0000 	   39.0000 	   59.6016 
    1.8235 	    5.6870 	    4.0000 	   39.0000 	   59.6336 
    1.6098 	    5.7160 	    4.0000 	   39.0000 	   59.6626 
    1.7624 	    5.7450 	    4.0000 	   39.0000 	   59.6916 
    1.7166 	    5.7760 	    4.0000 	   39.0000 	   59.7226 
    1.6251 	    5.8070 	    4.0000 	   39.0000 	   59.7536 
    1.7166 	    5.8350 	    4.0000 	   39.0000 	   59.7816 
    1.6861 	    5.8660 	    4.0000 	   39.0000 	   59.8126 
    1.6403 	    5.8960 	    4.0000 	   39.0000 	   59.8426 
    1.5793 	    5.9260 	    4.0000 	   39.0000 	   59.8726 
    1.6556 	    5.9550 	    4.0000 	   39.0000 	   59.9016 
    1.7166 	    5.9870 	    4.0000 	   39.0000 	   59.9336 
    1.8540 	    6.0170 	    4.0000 	   39.0000 	   59.9636 
    1.7624 	    6.0460 	    4.0000 	   39.0000 	   59.9926 
    1.8845 	    6.0750 	    4.0000 	   40.0000 	    0.0216 
    1.8540 	    6.1030 	    4.0000 	   40.0000 	    0.0496 
    1.8997 	    6.1300 	    4.0000 	   40.0000 	    0.0766 
    1.7319 	    6.1590 	    4.0000 	   40.0000 	    0.1056 
    1.8082 	    6.1850 	    4.0000 	   40.0000 	    0.1316 
    1.6709 	    6.2110 	    4.0000 	   40.0000 	    0.1576 
    1.6098 	    6.2370 	    4.0000 	   40.0000 	    0.1836 
    1.9455 	    6.2650 	    4.0000 	   40.0000 	    0.2116 
    1.7166 	    6.2890 	    4.0000 	   40.0000 	    0.2356 
    1.7319 	    6.3160 	    4.0000 	   40.0000 	    0.2626 
    1.9455 	    6.3450 	    4.0000 	   40.0000 	    0.2916 
    1.6403 	    6.3800 	    4.0000 	   40.0000 	    0.3266 
    1.8387 	    6.4100 	    4.0000 	   40.0000 	    0.3566 
    1.7319 	    6.4400 	    4.0000 	   40.0000 	    0.3866 
    1.8997 	    6.4720 	    4.0000 	   40.0000 	    0.4186 
    1.7014 	    6.5020 	    4.0000 	   40.0000 	    0.4486 
    1.6403 	    6.5320 	    4.0000 	   40.0000 	    0.4786 
    1.8387 	    6.5650 	    4.0000 	   40.0000 	    0.5116 
    1.7472 	    6.5950 	    4.0000 	   40.0000 	    0.5416 
    1.8082 	    6.6260 	    4.0000 	   40.0000 	    0.5726 
    1.7319 	    6.6560 	    4.0000 	   40.0000 	    0.6026 
    1.6861 	    6.6890 	    4.0000 	   40.0000 	    0.6356 
    1.8387 	    6.7180 	    4.0000 	   40.0000 	    0.6646 
    1.7929 	    6.7470 	    4.0000 	   40.0000 	    0.6936 
    1.7472 	    6.7800 	    4.0000 	   40.0000 	    0.7266 
    1.7777 	    6.8080 	    4.0000 	   40.0000 	    0.7546 
    1.8692 	    6.8360 	    4.0000 	   40.0000 	    0.7827 
    1.7624 	    6.8700 	    4.0000 	   40.0000 	    0.8167 
    1.8387 	    6.8980 	    4.0000 	   40.0000 	    0.8447 
    1.8235 	    6.9290 	    4.0000 	   40.0000 	    0.8757 
    1.6709 	    6.9590 	    4.0000 	   40.0000 	    0.9057 
    1.8997 	    6.9940 	    4.0000 	   40.0000 	    0.9407 
    1.5640 	    7.0240 	    4.0000 	   40.0000 	    0.9707 
    1.5335 	    7.0530 	    4.0000 	   40.0000 	    0.9997 
    1.8235 	    7.0850 	    4.0000 	   40.0000 	    1.0317 
    1.5488 	    7.1120 	    4.0000 	   40.0000 	    1.0587 
    1.7624 	    7.1390 	    4.0000 	   40.0000 	    1.0857 
    1.8235 	    7.1700 	    4.0000 	   40.0000 	    1.1167 
    1.9303 	    7.1960 	    4.0000 	   40.0000 	    1.1427 
    1.7929 	    7.2220 	    4.0000 	   40.0000 	    1.1687 
    1.7777 	    7.2490 	    4.0000 	   40.0000 	    1.1957 
    1.8082 	    7.2770 	    4.0000 	   40.0000 	    1.2237 
    1.8845 	    7.3020 	    4.0000 	   40.0000 	    1.2487 
    1.8997 	    7.3290 	    4.0000 	   40.0000 	    1.2757 
    1.6861 	    7.3620 	    4.0000 	   40.0000 	    1.3077 
    1.7929 	    7.3890 	    4.0000 	   40.0000 	    1.3357 
    1.7929 	    7.4140 	    4.0000 	   40.0000 	    1.3607 
    1.8540 	    7.4440 	    4.0000 	   40.0000 	    1.3907 
    1.7472 	    7.4800 	    4.0000 	   40.0000 	    1.4267 
    1.7472 	    7.5090 	    4.0000 	   40.0000 	    1.4557 
    1.9150 	    7.5410 	    4.0000 	   40.0000 	    1.4877 
    1.8387 	    7.5730 	    4.0000 	   40.0000 	    1.5197 
    1.8997 	    7.6030 	    4.0000 	   40.0000 	    1.5497 
    1.8540 	    7.6340 	    4.0000 	   40.0000 	    1.5807 
    1.8997 	    7.6680 	    4.0000 	   40.0000 	    1.6147 
    1.6861 	    7.6990 	    4.0000 	   40.0000 	    1.6457 
    1.8387 	    7.7290 	    4.0000 	   40.0000 	    1.6757 
    1.7929 	    7.7590 	    4.0000 	   40.0000 	    1.7057 
    1.8235 	    7.7930 	    4.0000 	   40.0000 	    1.7397 
    1.9760 	    7.8220 	    4.0000 	   40.0000 	    1.7687 
    1.7472 	    7.8530 	    4.0000 	   40.0000 	    1.7997 
    2.0218 	    7.8860 	    4.0000 	   40.0000 	    1.8327 
    1.9150 	    7.9150 	    4.0000 	   40.0000 	    1.8617 
    1.9455 	    7.9480 	    4.0000 	   40.0000 	    1.8947 
    1.8692 	    7.9760 	    4.0000 	   40.0000 	    1.9227 
    1.8387 	    8.0070 	    4.0000 	   40.0000 	    1.9537 
    1.8692 	    8.0370 	    4.0000 	   40.0000 	    1.9837 
    2.0523 	    8.0710 	    4.0000 	   40.0000 	    2.0177 
    1.9608 	    8.1000 	    4.0000 	   40.0000 	    2.0467 
    1.6861 	    8.1290 	    4.0000 	   40.0000 	    2.0757 
    1.8997 	    8.1580 	    4.0000 	   40.0000 	    2.1047 
    1.8387 	    8.1870 	    4.0000 	   40.0000 	    2.1337 
    1.8692 	    8.2140 	    4.0000 	   40.0000 	    2.1607 
    1.8845 	    8.2410 	    4.0000 	   40.0000 	    2.1877 
    1.9760 	    8.2700 	    4.0000 	   40.0000 	    2.2167 
    2.0218 	    8.2950 	    4.0000 	   40.0000 	    2.2417 
    1.9455 	    8.3220 	    4.0000 	   40.0000 	    2.2687 
    1.9455 	    8.3510 	    4.0000 	   40.0000 	    2.2977 
    2.1134 	    8.3800 	    4.0000 	   40.0000 	    2.3267 
    2.1134 	    8.4100 	    4.0000 	   40.0000 	    2.3567 
    2.0981 	    8.4430 	    4.0000 	   40.0000 	    2.3897 
    1.9150 	    8.4760 	    4.0000 	   40.0000 	    2.4227 
    1.9455 	    8.5070 	    4.0000 	   40.0000 	    2.4537 
    2.0676 	    8.5370 	    4.0000 	   40.0000 	    2.4837 
    1.9608 	    8.5670 	    4.0000 	   40.0000 	    2.5138 
    2.1592 	    8.5980 	    4.0000 	   40.0000 	    2.5448 
    2.0523 	    8.6290 	    4.0000 	   40.0000 	    2.5758 
    1.9303 	    8.6590 	    4.0000 	   40.0000 	    2.6058 
    1.8540 	    8.6950 	    4.0000 	   40.0000 	    2.6418 
    2.0523 	    8.7260 	    4.0000 	   40.0000 	    2.6728 
    2.0829 	    8.7570 	    4.0000 	   40.0000 	    2.7038 
    2.0981 	    8.7870 	    4.0000 	   40.0000 	    2.7338 
    1.9760 	    8.8160 	    4.0000 	   40.0000 	    2.7628 
    2.0066 	    8.8470 	    4.0000 	   40.0000 	    2.7938 
    1.7319 	    8.8810 	    4.0000 	   40.0000 	    2.8278 
    2.1134 	    8.9110 	    4.0000 	   40.0000 	    2.8578 
    2.0218 	    8.9410 	    4.0000 	   40.0000 	    2.8878 
    1.8692 	    8.9750 	    4.0000 	   40.0000 	    2.9218 
    2.0218 	    9.0050 	    4.0000 	   40.0000 	    2.9518 
    2.0981 	    9.0350 	    4.0000 	   40.0000 	    2.9818 
    1.9760 	    9.0670 	    4.0000 	   40.0000 	    3.0138 
    1.9913 	    9.0950 	    4.0000 	   40.0000 	    3.0418 
    2.1286 	    9.1220 	    4.0000 	   40.0000 	    3.0688 
    1.9913 	    9.1500 	    4.0000 	   40.0000 	    3.0968 
    2.0218 	    9.1790 	    4.0000 	   40.0000 	    3.1258 
    2.1897 	    9.2050 	    4.0000 	   40.0000 	    3.1518 
    2.0218 	    9.2320 	    4.0000 	   40.0000 	    3.1788 
    2.1439 	    9.2600 	    4.0000 	   40.0000 	    3.2068 
    1.7624 	    9.2860 	    4.0000 	   40.0000 	    3.2328 
    2.1134 	    9.3110 	    4.0000 	   40.0000 	    3.2578 
    2.1134 	    9.3380 	    4.0000 	   40.0000 	    3.2848 
    2.0371 	    9.3680 	    4.0000 	   40.0000 	    3.3148 
    2.1286 	    9.3990 	    4.0000 	   40.0000 	    3.3458 
    1.8235 	    9.4280 	    4.0000 	   40.0000 	    3.3748 
    2.0066 	    9.4590 	    4.0000 	   40.0000 	    3.4058 
    2.1134 	    9.4950 	    4.0000 	   40.0000 	    3.4418 
    2.0218 	    9.5250 	    4.0000 	   40.0000 	    3.4718 
    2.1897 	    9.5570 	    4.0000 	   40.0000 	    3.5038 
    2.2049 	    9.5870 	    4.0000 	   40.0000 	    3.5338 
    2.0371 	    9.6190 	    4.0000 	   40.0000 	    3.5658 
    1.9913 	    9.6520 	    4.0000 	   40.0000 	    3.5988 
    2.1439 	    9.6860 	    4.0000 	   40.0000 	    3.6328 
    2.0066 	    9.7150 	    4.0000 	   40.0000 	    3.6618 
    2.0981 	    9.7440 	    4.0000 	   40.0000 	    3.6908 
    2.1744 	    9.7760 	    4.0000 	   40.0000 	    3.7228 
    2.0066 	    9.8070 	    4.0000 	   40.0000 	    3.7538 
    2.0066 	    9.8380 	    4.0000 	   40.0000 	    3.7848 
    1.9455 	    9.8700 	    4.0000 	   40.0000 	    3.8168 
    2.1897 	    9.9000 	    4.0000 	   40.0000 	    3.8468 
    2.0829 	    9.9300 	    4.0000 	   40.0000 	    3.8768 
    2.1134 	    9.9610 	    4.0000 	   40.0000 	    3.9078 
    2.2049 	    9.9930 	    4.0000 	   40.0000 	    3.9398 
    2.2049 	   10.0250 	    4.0000 	   40.0000 	    3.9718 
    2.0371 	   10.0560 	    4.0000 	   40.0000 	    4.0028 
    2.2202 	   10.0860 	    4.0000 	   40.0000 	    4.0328 
    1.7166 	   10.1160 	    4.0000 	   40.0000 	    4.0628 
    2.1592 	   10.1440 	    4.0000 	   40.0000 	    4.0908 
    1.8082 	   10.1730 	    4.0000 	   40.0000 	    4.1198 
    2.1286 	   10.1990 	    4.0000 	   40.0000 	    4.1458 
    2.1134 	   10.2260 	    4.0000 	   40.0000 	    4.1728 
    2.2812 	   10.2540 	    4.0000 	   40.0000 	    4.2008 
    1.9760 	   10.2840 	    4.0000 	   40.0000 	    4.2308 
    2.1134 	   10.3100 	    4.0000 	   40.0000 	    4.2568 
    2.1744 	   10.3370 	    4.0000 	   40.0000 	    4.2839 
    2.3423 	   10.3650 	    4.0000 	   40.0000 	    4.3119 
    2.0218 	   10.3940 	    4.0000 	   40.0000 	    4.3409 
    2.0981 	   10.4270 	    4.0000 	   40.0000 	    4.3739 
    2.1592 	   10.4600 	    4.0000 	   40.0000 	    4.4069 
    2.2812 	   10.4940 	    4.0000 	   40.0000 	    4.4409 
    2.2049 	   10.5260 	    4.0000 	   40.0000 	    4.4729 
    2.1744 	   10.5600 	    4.0000 	   40.0000 	    4.5069 
    2.2660 	   10.5900 	    4.0000 	   40.0000 	    4.5369 
    2.0829 	   10.6210 	    4.0000 	   40.0000 	    4.5679 
    2.3728 	   10.6500 	    4.0000 	   40.0000 	    4.5969 
    2.2049 	   10.6840 	    4.0000 	   40.0000 	    4.6309 
    2.2812 	   10.7140 	    4.0000 	   40.0000 	    4.6609 
    2.2812 	   10.7430 	    4.0000 	   40.0000 	    4.6899 
    2.1897 	   10.7730 	    4.0000 	   40.0000 	    4.7199 
    2.0523 	   10.8030 	    4.0000 	   40.0000 	    4.7499 
    2.1744 	   10.8350 	    4.0000 	   40.0000 	    4.7819 
    2.2049 	   10.8670 	    4.0000 	   40.0000 	    4.8139 
    2.1897 	   10.9000 	    4.0000 	   40.0000 	    4.8469 
    2.2812 	   10.9290 	    4.0000 	   40.0000 	    4.8759 
    2.1744 	   10.9600 	    4.0000 	   40.0000 	    4.9069 
    2.1897 	   10.9930 	    4.0000 	   40.0000 	    4.9399 
    1.9913 	   11.0230 	    4.0000 	   40.0000 	    4.9699 
    2.1286 	   11.0540 	    4.0000 	   40.0000 	    5.0009 
    2.1744 	   11.0850 	    4.0000 	   40.0000 	    5.0319 
    2.2507 	   11.1140 	    4.0000 	   40.0000 	    5.0609 
    2.1592 	   11.1420 	    4.0000 	   40.0000 	    5.0889 
    2.2660 	   11.1720 	    4.0000 	   40.0000 	    5.1189 
    2.2812 	   11.1990 	    4.0000 	   40.0000 	    5.1459 
    2.3423 	   11.2260 	    4.0000 	   40.0000 	    5.1729 
    2.2660 	   11.2530 	    4.0000 	   40.0000 	    5.1999 
    2.2049 	   11.2830 	    4.0000 	   40.0000 	    5.2299 
    2.0829 	   11.3090 	    4.0000 	   40.0000 	    5.2559 
    2.1744 	   11.3380 	    4.0000 	   40.0000 	    5.2849 
    2.1897 	   11.3680 	    4.0000 	   40.0000 	    5.3149 
    2.2660 	   11.3980 	    4.0000 	   40.0000 	    5.3449 
    2.2965 	   11.4270 	    4.0000 	   40.0000 	    5.3739 
    2.2049 	   11.4600 	    4.0000 	   40.0000 	    5.4069 
    2.2507 	   11.4940 	    4.0000 	   40.0000 	    5.4409 
    2.3117 	   11.5230 	    4.0000 	   40.0000 	    5.4699 
    2.2660 	   11.5520 	    4.0000 	   40.0000 	    5.4989 
    2.2354 	   11.5870 	    4.0000 	   40.0000 	    5.5339 
    2.1744 	   11.6190 	    4.0000 	   40.0000 	    5.5659 
    2.2660 	   11.6490 	    4.0000 	   40.0000 	    5.5959 
    2.0066 	   11.6790 	    4.0000 	   40.0000 	    5.6259 
    2.3880 	   11.7110 	    4.0000 	   40.0000 	    5.6579 
    2.3423 	   11.7410 	    4.0000 	   40.0000 	    5.6879 
    2.2660 	   11.7740 	    4.0000 	   40.0000 	    5.7209 
    2.4186 	   11.8060 	    4.0000 	   40.0000 	    5.7529 
    2.2507 	   11.8410 	    4.0000 	   40.0000 	    5.7879 
