Thayer School of Engineering        Instron 4442 Mechanical Testing System
7/9/2018 12:43:22 AM

  Force (N)	Extension (mm)	Not Used	Not Used	Not Used	     Hour	    Minute	    Second
    0.4349 	    0.5070 	    0.0000 	   44.0000 	    3.5099 
    0.4349 	    0.5250 	    0.0000 	   44.0000 	    3.5459 
    0.3891 	    0.5570 	    0.0000 	   44.0000 	    3.6099 
    0.5112 	    0.5730 	    0.0000 	   44.0000 	    3.6419 
    0.3281 	    0.5900 	    0.0000 	   44.0000 	    3.6759 
    0.5417 	    0.6190 	    0.0000 	   44.0000 	    3.7339 
    0.4807 	    0.6450 	    0.0000 	   44.0000 	    3.7859 
    0.3738 	    0.6715 	    0.0000 	   44.0000 	    3.8389 
    0.4044 	    0.6880 	    0.0000 	   44.0000 	    3.8719 
    0.3738 	    0.7165 	    0.0000 	   44.0000 	    3.9289 
    0.3738 	    0.7335 	    0.0000 	   44.0000 	    3.9629 
    0.1450 	    0.7500 	    0.0000 	   44.0000 	    3.9959 
    0.4349 	    0.7660 	    0.0000 	   44.0000 	    4.0279 
    0.4501 	    0.7940 	    0.0000 	   44.0000 	    4.0839 
    0.1755 	    0.8230 	    0.0000 	   44.0000 	    4.1419 
    0.4501 	    0.8490 	    0.0000 	   44.0000 	    4.1939 
    0.4349 	    0.8765 	    0.0000 	   44.0000 	    4.2489 
    0.5112 	    0.9020 	    0.0000 	   44.0000 	    4.2999 
    0.4501 	    0.9260 	    0.0000 	   44.0000 	    4.3479 
    0.3281 	    0.9510 	    0.0000 	   44.0000 	    4.3979 
    0.3738 	    0.9765 	    0.0000 	   44.0000 	    4.4489 
    0.4654 	    1.0055 	    0.0000 	   44.0000 	    4.5069 
    0.4807 	    1.0335 	    0.0000 	   44.0000 	    4.5629 
    0.3738 	    1.0585 	    0.0000 	   44.0000 	    4.6129 
    0.3738 	    1.0735 	    0.0000 	   44.0000 	    4.6429 
    0.3738 	    1.1010 	    0.0000 	   44.0000 	    4.6979 
    0.5722 	    1.1155 	    0.0000 	   44.0000 	    4.7270 
    0.1907 	    1.1295 	    0.0000 	   44.0000 	    4.7550 
    0.4044 	    1.1580 	    0.0000 	   44.0000 	    4.8120 
    0.4196 	    1.1835 	    0.0000 	   44.0000 	    4.8630 
    0.4044 	    1.2090 	    0.0000 	   44.0000 	    4.9140 
    0.4654 	    1.2240 	    0.0000 	   44.0000 	    4.9440 
    0.1907 	    1.2375 	    0.0000 	   44.0000 	    4.9710 
    0.4196 	    1.2655 	    0.0000 	   44.0000 	    5.0270 
    0.6332 	    1.2925 	    0.0000 	   44.0000 	    5.0810 
    0.5722 	    1.3185 	    0.0000 	   44.0000 	    5.1330 
    0.1907 	    1.3450 	    0.0000 	   44.0000 	    5.1860 
    0.5112 	    1.3610 	    0.0000 	   44.0000 	    5.2180 
    0.5112 	    1.3900 	    0.0000 	   44.0000 	    5.2760 
    0.4044 	    1.4165 	    0.0000 	   44.0000 	    5.3290 
    0.5112 	    1.4335 	    0.0000 	   44.0000 	    5.3630 
    0.2060 	    1.4625 	    0.0000 	   44.0000 	    5.4210 
    0.5264 	    1.4885 	    0.0000 	   44.0000 	    5.4730 
    0.3738 	    1.5145 	    0.0000 	   44.0000 	    5.5250 
    0.3891 	    1.5410 	    0.0000 	   44.0000 	    5.5780 
    0.6027 	    1.5695 	    0.0000 	   44.0000 	    5.6350 
    0.4044 	    1.5865 	    0.0000 	   44.0000 	    5.6690 
    0.4349 	    1.6165 	    0.0000 	   44.0000 	    5.7290 
    0.5417 	    1.6330 	    0.0000 	   44.0000 	    5.7610 
    0.5112 	    1.6485 	    0.0000 	   44.0000 	    5.7920 
    0.4044 	    1.6645 	    0.0000 	   44.0000 	    5.8240 
    0.4349 	    1.6800 	    0.0000 	   44.0000 	    5.8550 
    0.0992 	    1.6960 	    0.0000 	   44.0000 	    5.8870 
    0.4196 	    1.7140 	    0.0000 	   44.0000 	    5.9230 
    0.4501 	    1.7435 	    0.0000 	   44.0000 	    5.9820 
    0.4501 	    1.7620 	    0.0000 	   44.0000 	    6.0190 
    0.4807 	    1.7770 	    0.0000 	   44.0000 	    6.0490 
    0.5570 	    1.7925 	    0.0000 	   44.0000 	    6.0800 
    0.4349 	    1.8085 	    0.0000 	   44.0000 	    6.1120 
    0.4959 	    1.8245 	    0.0000 	   44.0000 	    6.1440 
    0.4501 	    1.8395 	    0.0000 	   44.0000 	    6.1740 
    0.1297 	    1.8570 	    0.0000 	   44.0000 	    6.2090 
    0.5417 	    1.8735 	    0.0000 	   44.0000 	    6.2420 
    0.4501 	    1.8900 	    0.0000 	   44.0000 	    6.2750 
    0.4807 	    1.9070 	    0.0000 	   44.0000 	    6.3090 
    0.4959 	    1.9240 	    0.0000 	   44.0000 	    6.3430 
    0.4959 	    1.9405 	    0.0000 	   44.0000 	    6.3760 
    0.1755 	    1.9575 	    0.0000 	   44.0000 	    6.4100 
    0.4349 	    1.9735 	    0.0000 	   44.0000 	    6.4420 
    0.4349 	    1.9895 	    0.0000 	   44.0000 	    6.4741 
    0.3128 	    2.0050 	    0.0000 	   44.0000 	    6.5051 
    0.4044 	    2.0210 	    0.0000 	   44.0000 	    6.5371 
    0.4959 	    2.0365 	    0.0000 	   44.0000 	    6.5681 
    0.2976 	    2.0535 	    0.0000 	   44.0000 	    6.6021 
    0.5417 	    2.0675 	    0.0000 	   44.0000 	    6.6301 
    0.4196 	    2.0855 	    0.0000 	   44.0000 	    6.6661 
    0.3891 	    2.1020 	    0.0000 	   44.0000 	    6.6991 
    0.4501 	    2.1175 	    0.0000 	   44.0000 	    6.7301 
    0.3281 	    2.1340 	    0.0000 	   44.0000 	    6.7631 
    0.4196 	    2.1495 	    0.0000 	   44.0000 	    6.7941 
    0.4349 	    2.1665 	    0.0000 	   44.0000 	    6.8281 
    0.3281 	    2.1830 	    0.0000 	   44.0000 	    6.8611 
    0.6638 	    2.1995 	    0.0000 	   44.0000 	    6.8941 
    0.3738 	    2.2160 	    0.0000 	   44.0000 	    6.9271 
    0.5722 	    2.2310 	    0.0000 	   44.0000 	    6.9571 
    0.5264 	    2.2475 	    0.0000 	   44.0000 	    6.9901 
    0.5112 	    2.2645 	    0.0000 	   44.0000 	    7.0241 
    0.6485 	    2.2805 	    0.0000 	   44.0000 	    7.0561 
    0.5417 	    2.2970 	    0.0000 	   44.0000 	    7.0891 
    0.6180 	    2.3140 	    0.0000 	   44.0000 	    7.1231 
    0.3128 	    2.3280 	    0.0000 	   44.0000 	    7.1511 
    0.5112 	    2.3455 	    0.0000 	   44.0000 	    7.1861 
    0.4501 	    2.3620 	    0.0000 	   44.0000 	    7.2191 
    0.3891 	    2.3785 	    0.0000 	   44.0000 	    7.2521 
    0.4654 	    2.3950 	    0.0000 	   44.0000 	    7.2851 
    0.6180 	    2.4100 	    0.0000 	   44.0000 	    7.3151 
    0.4044 	    2.4275 	    0.0000 	   44.0000 	    7.3501 
    0.4807 	    2.4440 	    0.0000 	   44.0000 	    7.3831 
    0.4349 	    2.4605 	    0.0000 	   44.0000 	    7.4161 
    0.4349 	    2.4755 	    0.0000 	   44.0000 	    7.4461 
    0.4654 	    2.4915 	    0.0000 	   44.0000 	    7.4781 
    0.4807 	    2.5080 	    0.0000 	   44.0000 	    7.5111 
    0.3433 	    2.5235 	    0.0000 	   44.0000 	    7.5421 
    0.5264 	    2.5400 	    0.0000 	   44.0000 	    7.5751 
    0.4807 	    2.5550 	    0.0000 	   44.0000 	    7.6051 
    0.4807 	    2.5710 	    0.0000 	   44.0000 	    7.6371 
    0.3433 	    2.5880 	    0.0000 	   44.0000 	    7.6711 
    0.4349 	    2.6030 	    0.0000 	   44.0000 	    7.7011 
    0.4807 	    2.6200 	    0.0000 	   44.0000 	    7.7351 
    0.4044 	    2.6365 	    0.0000 	   44.0000 	    7.7681 
    0.4501 	    2.6520 	    0.0000 	   44.0000 	    7.7991 
    0.3891 	    2.6695 	    0.0000 	   44.0000 	    7.8341 
    0.5570 	    2.6845 	    0.0000 	   44.0000 	    7.8641 
    0.5417 	    2.6995 	    0.0000 	   44.0000 	    7.8941 
    0.5417 	    2.7145 	    0.0000 	   44.0000 	    7.9241 
    0.3738 	    2.7290 	    0.0000 	   44.0000 	    7.9531 
    0.5112 	    2.7460 	    0.0000 	   44.0000 	    7.9871 
    0.5570 	    2.7610 	    0.0000 	   44.0000 	    8.0171 
    0.5112 	    2.7770 	    0.0000 	   44.0000 	    8.0491 
    0.5264 	    2.7930 	    0.0000 	   44.0000 	    8.0811 
    0.4196 	    2.8085 	    0.0000 	   44.0000 	    8.1121 
    0.3128 	    2.8245 	    0.0000 	   44.0000 	    8.1441 
    0.5570 	    2.8410 	    0.0000 	   44.0000 	    8.1771 
    0.4501 	    2.8565 	    0.0000 	   44.0000 	    8.2081 
    0.5264 	    2.8715 	    0.0000 	   44.0000 	    8.2382 
    0.4959 	    2.8875 	    0.0000 	   44.0000 	    8.2702 
    0.4196 	    2.9020 	    0.0000 	   44.0000 	    8.2992 
    0.5417 	    2.9180 	    0.0000 	   44.0000 	    8.3312 
    0.4959 	    2.9350 	    0.0000 	   44.0000 	    8.3652 
    0.5112 	    2.9495 	    0.0000 	   44.0000 	    8.3942 
    0.5570 	    2.9645 	    0.0000 	   44.0000 	    8.4242 
    0.5570 	    2.9790 	    0.0000 	   44.0000 	    8.4532 
    0.3128 	    2.9955 	    0.0000 	   44.0000 	    8.4862 
    0.5722 	    3.0100 	    0.0000 	   44.0000 	    8.5152 
    0.5570 	    3.0250 	    0.0000 	   44.0000 	    8.5452 
    0.4501 	    3.0420 	    0.0000 	   44.0000 	    8.5792 
    0.4044 	    3.0575 	    0.0000 	   44.0000 	    8.6102 
    0.4196 	    3.0725 	    0.0000 	   44.0000 	    8.6402 
    0.6638 	    3.0900 	    0.0000 	   44.0000 	    8.6752 
    0.4654 	    3.1050 	    0.0000 	   44.0000 	    8.7052 
    0.5417 	    3.1195 	    0.0000 	   44.0000 	    8.7342 
    0.4044 	    3.1365 	    0.0000 	   44.0000 	    8.7682 
    0.4807 	    3.1525 	    0.0000 	   44.0000 	    8.8002 
    0.5264 	    3.1675 	    0.0000 	   44.0000 	    8.8302 
    0.6180 	    3.1845 	    0.0000 	   44.0000 	    8.8642 
    0.1755 	    3.2005 	    0.0000 	   44.0000 	    8.8962 
    0.4196 	    3.2160 	    0.0000 	   44.0000 	    8.9272 
    0.6027 	    3.2340 	    0.0000 	   44.0000 	    8.9632 
    0.4349 	    3.2495 	    0.0000 	   44.0000 	    8.9942 
    0.5875 	    3.2635 	    0.0000 	   44.0000 	    9.0222 
    0.4044 	    3.2790 	    0.0000 	   44.0000 	    9.0532 
    0.2823 	    3.2955 	    0.0000 	   44.0000 	    9.0862 
    0.4654 	    3.3105 	    0.0000 	   44.0000 	    9.1162 
    0.4501 	    3.3255 	    0.0000 	   44.0000 	    9.1462 
    0.5417 	    3.3425 	    0.0000 	   44.0000 	    9.1802 
    0.1450 	    3.3575 	    0.0000 	   44.0000 	    9.2102 
    0.4959 	    3.3725 	    0.0000 	   44.0000 	    9.2402 
    0.6180 	    3.3890 	    0.0000 	   44.0000 	    9.2732 
    0.5570 	    3.4040 	    0.0000 	   44.0000 	    9.3032 
    0.4044 	    3.4190 	    0.0000 	   44.0000 	    9.3332 
    0.5875 	    3.4365 	    0.0000 	   44.0000 	    9.3682 
    0.5112 	    3.4520 	    0.0000 	   44.0000 	    9.3992 
    0.4654 	    3.4675 	    0.0000 	   44.0000 	    9.4302 
    0.4959 	    3.4840 	    0.0000 	   44.0000 	    9.4632 
    0.4501 	    3.4995 	    0.0000 	   44.0000 	    9.4942 
    0.4196 	    3.5140 	    0.0000 	   44.0000 	    9.5232 
    0.4959 	    3.5285 	    0.0000 	   44.0000 	    9.5522 
    0.6027 	    3.5460 	    0.0000 	   44.0000 	    9.5872 
    0.5112 	    3.5615 	    0.0000 	   44.0000 	    9.6182 
    0.5264 	    3.5780 	    0.0000 	   44.0000 	    9.6512 
    0.5722 	    3.5940 	    0.0000 	   44.0000 	    9.6832 
    0.4959 	    3.6110 	    0.0000 	   44.0000 	    9.7172 
    0.5722 	    3.6265 	    0.0000 	   44.0000 	    9.7482 
    0.3891 	    3.6445 	    0.0000 	   44.0000 	    9.7842 
    0.4807 	    3.6615 	    0.0000 	   44.0000 	    9.8182 
    0.4044 	    3.6775 	    0.0000 	   44.0000 	    9.8502 
    0.6180 	    3.6945 	    0.0000 	   44.0000 	    9.8842 
    0.4196 	    3.7105 	    0.0000 	   44.0000 	    9.9162 
    0.4807 	    3.7265 	    0.0000 	   44.0000 	    9.9482 
    0.6180 	    3.7435 	    0.0000 	   44.0000 	    9.9823 
    0.4807 	    3.7590 	    0.0000 	   44.0000 	   10.0133 
    0.4959 	    3.7735 	    0.0000 	   44.0000 	   10.0423 
    0.5722 	    3.7920 	    0.0000 	   44.0000 	   10.0793 
    0.4044 	    3.8075 	    0.0000 	   44.0000 	   10.1103 
    0.2518 	    3.8230 	    0.0000 	   44.0000 	   10.1413 
    0.5570 	    3.8395 	    0.0000 	   44.0000 	   10.1743 
    0.4501 	    3.8550 	    0.0000 	   44.0000 	   10.2053 
    0.5417 	    3.8700 	    0.0000 	   44.0000 	   10.2353 
    0.1602 	    3.8865 	    0.0000 	   44.0000 	   10.2683 
    0.4044 	    3.9020 	    0.0000 	   44.0000 	   10.2993 
    0.5112 	    3.9180 	    0.0000 	   44.0000 	   10.3313 
    0.4959 	    3.9355 	    0.0000 	   44.0000 	   10.3663 
    0.3891 	    3.9515 	    0.0000 	   44.0000 	   10.3983 
    0.5875 	    3.9670 	    0.0000 	   44.0000 	   10.4293 
    0.4349 	    3.9830 	    0.0000 	   44.0000 	   10.4613 
    0.4807 	    3.9975 	    0.0000 	   44.0000 	   10.4903 
    0.4349 	    4.0120 	    0.0000 	   44.0000 	   10.5193 
    0.4349 	    4.0270 	    0.0000 	   44.0000 	   10.5493 
    0.4501 	    4.0440 	    0.0000 	   44.0000 	   10.5833 
    0.6180 	    4.0600 	    0.0000 	   44.0000 	   10.6153 
    0.6332 	    4.0760 	    0.0000 	   44.0000 	   10.6473 
    0.4349 	    4.0905 	    0.0000 	   44.0000 	   10.6763 
    0.1144 	    4.1055 	    0.0000 	   44.0000 	   10.7063 
    0.4959 	    4.1210 	    0.0000 	   44.0000 	   10.7373 
    0.4349 	    4.1375 	    0.0000 	   44.0000 	   10.7703 
    0.4959 	    4.1525 	    0.0000 	   44.0000 	   10.8003 
    0.6027 	    4.1690 	    0.0000 	   44.0000 	   10.8333 
    0.5417 	    4.1840 	    0.0000 	   44.0000 	   10.8633 
    0.4807 	    4.1985 	    0.0000 	   44.0000 	   10.8923 
    0.4501 	    4.2140 	    0.0000 	   44.0000 	   10.9233 
    0.4807 	    4.2290 	    0.0000 	   44.0000 	   10.9533 
    0.4807 	    4.2455 	    0.0000 	   44.0000 	   10.9863 
    0.4654 	    4.2615 	    0.0000 	   44.0000 	   11.0183 
    0.4807 	    4.2785 	    0.0000 	   44.0000 	   11.0523 
    0.4349 	    4.2945 	    0.0000 	   44.0000 	   11.0843 
    0.4044 	    4.3095 	    0.0000 	   44.0000 	   11.1143 
    0.4196 	    4.3250 	    0.0000 	   44.0000 	   11.1453 
    0.3891 	    4.3420 	    0.0000 	   44.0000 	   11.1793 
    0.5264 	    4.3570 	    0.0000 	   44.0000 	   11.2093 
    0.5875 	    4.3720 	    0.0000 	   44.0000 	   11.2393 
    0.4501 	    4.3880 	    0.0000 	   44.0000 	   11.2713 
    0.4654 	    4.4035 	    0.0000 	   44.0000 	   11.3023 
    0.5417 	    4.4195 	    0.0000 	   44.0000 	   11.3343 
    0.6027 	    4.4365 	    0.0000 	   44.0000 	   11.3683 
    0.6332 	    4.4535 	    0.0000 	   44.0000 	   11.4023 
    0.4654 	    4.4705 	    0.0000 	   44.0000 	   11.4363 
    0.4349 	    4.4865 	    0.0000 	   44.0000 	   11.4683 
    0.4807 	    4.5025 	    0.0000 	   44.0000 	   11.5003 
    0.5570 	    4.5175 	    0.0000 	   44.0000 	   11.5303 
    0.3586 	    4.5345 	    0.0000 	   44.0000 	   11.5643 
    0.5417 	    4.5500 	    0.0000 	   44.0000 	   11.5953 
    0.4959 	    4.5660 	    0.0000 	   44.0000 	   11.6273 
    0.3738 	    4.5815 	    0.0000 	   44.0000 	   11.6583 
    0.5112 	    4.5970 	    0.0000 	   44.0000 	   11.6893 
    0.4959 	    4.6130 	    0.0000 	   44.0000 	   11.7214 
    0.5112 	    4.6285 	    0.0000 	   44.0000 	   11.7524 
    0.6027 	    4.6465 	    0.0000 	   44.0000 	   11.7884 
    0.4501 	    4.6625 	    0.0000 	   44.0000 	   11.8204 
    0.4044 	    4.6785 	    0.0000 	   44.0000 	   11.8524 
    0.6027 	    4.6945 	    0.0000 	   44.0000 	   11.8844 
    0.4654 	    4.7105 	    0.0000 	   44.0000 	   11.9164 
    0.6027 	    4.7260 	    0.0000 	   44.0000 	   11.9474 
    0.4501 	    4.7430 	    0.0000 	   44.0000 	   11.9814 
    0.5417 	    4.7585 	    0.0000 	   44.0000 	   12.0124 
    0.5875 	    4.7750 	    0.0000 	   44.0000 	   12.0454 
    0.4959 	    4.7900 	    0.0000 	   44.0000 	   12.0754 
    0.4959 	    4.8055 	    0.0000 	   44.0000 	   12.1064 
    0.5875 	    4.8210 	    0.0000 	   44.0000 	   12.1374 
    0.5570 	    4.8380 	    0.0000 	   44.0000 	   12.1714 
    0.5570 	    4.8535 	    0.0000 	   44.0000 	   12.2024 
    0.4654 	    4.8700 	    0.0000 	   44.0000 	   12.2354 
    0.6180 	    4.8855 	    0.0000 	   44.0000 	   12.2664 
    0.5570 	    4.9010 	    0.0000 	   44.0000 	   12.2974 
    0.4959 	    4.9175 	    0.0000 	   44.0000 	   12.3304 
    0.4959 	    4.9350 	    0.0000 	   44.0000 	   12.3654 
    0.4501 	    4.9510 	    0.0000 	   44.0000 	   12.3974 
    0.4196 	    4.9675 	    0.0000 	   44.0000 	   12.4304 
    0.4196 	    4.9835 	    0.0000 	   44.0000 	   12.4624 
    0.2518 	    5.0000 	    0.0000 	   44.0000 	   12.4954 
    0.4196 	    5.0155 	    0.0000 	   44.0000 	   12.5264 
    0.4501 	    5.0305 	    0.0000 	   44.0000 	   12.5564 
    0.4959 	    5.0490 	    0.0000 	   44.0000 	   12.5934 
    0.3128 	    5.0640 	    0.0000 	   44.0000 	   12.6234 
    0.5112 	    5.0795 	    0.0000 	   44.0000 	   12.6544 
    0.5875 	    5.0945 	    0.0000 	   44.0000 	   12.6844 
    0.5264 	    5.1110 	    0.0000 	   44.0000 	   12.7174 
    0.5570 	    5.1265 	    0.0000 	   44.0000 	   12.7484 
    0.4501 	    5.1435 	    0.0000 	   44.0000 	   12.7824 
    0.5875 	    5.1595 	    0.0000 	   44.0000 	   12.8144 
    0.4501 	    5.1745 	    0.0000 	   44.0000 	   12.8444 
    0.4501 	    5.1905 	    0.0000 	   44.0000 	   12.8764 
    0.3433 	    5.2060 	    0.0000 	   44.0000 	   12.9074 
    0.3738 	    5.2210 	    0.0000 	   44.0000 	   12.9374 
    0.3433 	    5.2385 	    0.0000 	   44.0000 	   12.9724 
    0.5264 	    5.2540 	    0.0000 	   44.0000 	   13.0034 
    0.5112 	    5.2710 	    0.0000 	   44.0000 	   13.0374 
    0.6027 	    5.2860 	    0.0000 	   44.0000 	   13.0674 
    0.5417 	    5.3010 	    0.0000 	   44.0000 	   13.0974 
    0.5264 	    5.3165 	    0.0000 	   44.0000 	   13.1284 
    0.4807 	    5.3335 	    0.0000 	   44.0000 	   13.1624 
    0.4654 	    5.3505 	    0.0000 	   44.0000 	   13.1964 
    0.4044 	    5.3660 	    0.0000 	   44.0000 	   13.2274 
    0.4807 	    5.3820 	    0.0000 	   44.0000 	   13.2594 
    0.3738 	    5.3985 	    0.0000 	   44.0000 	   13.2924 
    0.4807 	    5.4140 	    0.0000 	   44.0000 	   13.3234 
    0.6790 	    5.4290 	    0.0000 	   44.0000 	   13.3534 
    0.3891 	    5.4465 	    0.0000 	   44.0000 	   13.3884 
    0.5875 	    5.4630 	    0.0000 	   44.0000 	   13.4214 
    0.3738 	    5.4780 	    0.0000 	   44.0000 	   13.4515 
    0.6027 	    5.4935 	    0.0000 	   44.0000 	   13.4825 
    0.3738 	    5.5095 	    0.0000 	   44.0000 	   13.5145 
    0.5264 	    5.5250 	    0.0000 	   44.0000 	   13.5455 
    0.3433 	    5.5435 	    0.0000 	   44.0000 	   13.5825 
    0.5112 	    5.5595 	    0.0000 	   44.0000 	   13.6145 
    0.6180 	    5.5760 	    0.0000 	   44.0000 	   13.6475 
    0.4501 	    5.5920 	    0.0000 	   44.0000 	   13.6795 
    0.5264 	    5.6085 	    0.0000 	   44.0000 	   13.7125 
    0.4044 	    5.6245 	    0.0000 	   44.0000 	   13.7445 
    0.3891 	    5.6415 	    0.0000 	   44.0000 	   13.7785 
    0.5264 	    5.6580 	    0.0000 	   44.0000 	   13.8115 
    0.5570 	    5.6745 	    0.0000 	   44.0000 	   13.8445 
    0.5264 	    5.6900 	    0.0000 	   44.0000 	   13.8755 
    0.5875 	    5.7065 	    0.0000 	   44.0000 	   13.9085 
    0.5875 	    5.7235 	    0.0000 	   44.0000 	   13.9425 
    0.4959 	    5.7415 	    0.0000 	   44.0000 	   13.9785 
    0.4959 	    5.7570 	    0.0000 	   44.0000 	   14.0085 
    0.3738 	    5.7730 	    0.0000 	   44.0000 	   14.0415 
    0.5417 	    5.7895 	    0.0000 	   44.0000 	   14.0745 
    0.4349 	    5.8050 	    0.0000 	   44.0000 	   14.1055 
    0.5264 	    5.8210 	    0.0000 	   44.0000 	   14.1375 
    0.6180 	    5.8385 	    0.0000 	   44.0000 	   14.1725 
    0.5264 	    5.8540 	    0.0000 	   44.0000 	   14.2035 
    0.4654 	    5.8705 	    0.0000 	   44.0000 	   14.2365 
    0.3738 	    5.8860 	    0.0000 	   44.0000 	   14.2675 
    0.4501 	    5.9010 	    0.0000 	   44.0000 	   14.2975 
    0.5112 	    5.9170 	    0.0000 	   44.0000 	   14.3295 
    0.5264 	    5.9350 	    0.0000 	   44.0000 	   14.3655 
    0.5570 	    5.9515 	    0.0000 	   44.0000 	   14.3985 
    0.6790 	    5.9665 	    0.0000 	   44.0000 	   14.4285 
    0.4654 	    5.9830 	    0.0000 	   44.0000 	   14.4615 
    0.5264 	    5.9990 	    0.0000 	   44.0000 	   14.4935 
    0.5417 	    6.0145 	    0.0000 	   44.0000 	   14.5245 
    0.5264 	    6.0295 	    0.0000 	   44.0000 	   14.5545 
    0.5112 	    6.0480 	    0.0000 	   44.0000 	   14.5915 
