Thayer School of Engineering        Instron 4442 Mechanical Testing System
7/8/2018 11:14:45 PM

  Force (N)	Extension (mm)	Not Used	Not Used	Not Used	     Hour	    Minute	    Second
    0.3281 	    0.5085 	   23.0000 	   15.0000 	   33.0441 
    0.4196 	    0.5245 	   23.0000 	   15.0000 	   33.0761 
    0.4196 	    0.5570 	   23.0000 	   15.0000 	   33.1411 
    0.3891 	    0.5870 	   23.0000 	   15.0000 	   33.2011 
    0.4044 	    0.6025 	   23.0000 	   15.0000 	   33.2322 
    0.6027 	    0.6190 	   23.0000 	   15.0000 	   33.2652 
    0.4501 	    0.6340 	   23.0000 	   15.0000 	   33.2952 
    0.4501 	    0.6615 	   23.0000 	   15.0000 	   33.3502 
    0.3586 	    0.6885 	   23.0000 	   15.0000 	   33.4042 
    0.4501 	    0.7050 	   23.0000 	   15.0000 	   33.4372 
    0.4196 	    0.7335 	   23.0000 	   15.0000 	   33.4942 
    0.3891 	    0.7600 	   23.0000 	   15.0000 	   33.5472 
    0.4501 	    0.7855 	   23.0000 	   15.0000 	   33.5982 
    0.2365 	    0.7995 	   23.0000 	   15.0000 	   33.6262 
    0.2823 	    0.8260 	   23.0000 	   15.0000 	   33.6792 
    0.5417 	    0.8515 	   23.0000 	   15.0000 	   33.7302 
    0.3738 	    0.8800 	   23.0000 	   15.0000 	   33.7872 
    0.4044 	    0.9040 	   23.0000 	   15.0000 	   33.8352 
    0.4654 	    0.9310 	   23.0000 	   15.0000 	   33.8892 
    0.4196 	    0.9475 	   23.0000 	   15.0000 	   33.9222 
    0.5722 	    0.9765 	   23.0000 	   15.0000 	   33.9802 
    0.2213 	    1.0020 	   23.0000 	   15.0000 	   34.0312 
    0.4349 	    1.0290 	   23.0000 	   15.0000 	   34.0852 
    0.1297 	    1.0545 	   23.0000 	   15.0000 	   34.1362 
    0.4501 	    1.0785 	   23.0000 	   15.0000 	   34.1842 
    0.3586 	    1.1040 	   23.0000 	   15.0000 	   34.2352 
    0.4654 	    1.1330 	   23.0000 	   15.0000 	   34.2932 
    0.5112 	    1.1615 	   23.0000 	   15.0000 	   34.3502 
    0.1602 	    1.1875 	   23.0000 	   15.0000 	   34.4022 
    0.4654 	    1.2045 	   23.0000 	   15.0000 	   34.4362 
    0.7248 	    1.2330 	   23.0000 	   15.0000 	   34.4932 
    0.2823 	    1.2580 	   23.0000 	   15.0000 	   34.5432 
    0.4196 	    1.2820 	   23.0000 	   15.0000 	   34.5912 
    0.3891 	    1.3065 	   23.0000 	   15.0000 	   34.6402 
    0.4654 	    1.3330 	   23.0000 	   15.0000 	   34.6932 
    0.2670 	    1.3495 	   23.0000 	   15.0000 	   34.7262 
    0.5875 	    1.3780 	   23.0000 	   15.0000 	   34.7832 
    0.4501 	    1.4050 	   23.0000 	   15.0000 	   34.8372 
    0.5112 	    1.4295 	   23.0000 	   15.0000 	   34.8862 
    0.4196 	    1.4540 	   23.0000 	   15.0000 	   34.9352 
    0.2670 	    1.4795 	   23.0000 	   15.0000 	   34.9863 
    0.4044 	    1.5065 	   23.0000 	   15.0000 	   35.0403 
    0.6180 	    1.5310 	   23.0000 	   15.0000 	   35.0893 
    0.6027 	    1.5550 	   23.0000 	   15.0000 	   35.1373 
    0.5417 	    1.5825 	   23.0000 	   15.0000 	   35.1913 
    0.5570 	    1.5965 	   23.0000 	   15.0000 	   35.2203 
    0.7248 	    1.6115 	   23.0000 	   15.0000 	   35.2503 
    0.5264 	    1.6265 	   23.0000 	   15.0000 	   35.2803 
    0.5875 	    1.6555 	   23.0000 	   15.0000 	   35.3383 
    0.5875 	    1.6710 	   23.0000 	   15.0000 	   35.3693 
    0.5112 	    1.6870 	   23.0000 	   15.0000 	   35.4013 
    0.6638 	    1.7035 	   23.0000 	   15.0000 	   35.4343 
    0.4807 	    1.7195 	   23.0000 	   15.0000 	   35.4663 
    0.6180 	    1.7360 	   23.0000 	   15.0000 	   35.4993 
    0.6027 	    1.7520 	   23.0000 	   15.0000 	   35.5313 
    0.6027 	    1.7690 	   23.0000 	   15.0000 	   35.5653 
    0.5264 	    1.7840 	   23.0000 	   15.0000 	   35.5953 
    0.6332 	    1.8005 	   23.0000 	   15.0000 	   35.6283 
    0.5722 	    1.8170 	   23.0000 	   15.0000 	   35.6613 
    0.4501 	    1.8345 	   23.0000 	   15.0000 	   35.6963 
    0.6180 	    1.8520 	   23.0000 	   15.0000 	   35.7313 
    0.5722 	    1.8670 	   23.0000 	   15.0000 	   35.7613 
    0.5722 	    1.8845 	   23.0000 	   15.0000 	   35.7963 
    0.5417 	    1.9010 	   23.0000 	   15.0000 	   35.8293 
    0.6332 	    1.9180 	   23.0000 	   15.0000 	   35.8633 
    0.6027 	    1.9345 	   23.0000 	   15.0000 	   35.8963 
    0.5417 	    1.9515 	   23.0000 	   15.0000 	   35.9303 
    0.7706 	    1.9670 	   23.0000 	   15.0000 	   35.9613 
    0.8316 	    1.9835 	   23.0000 	   15.0000 	   35.9943 
    0.5417 	    2.0005 	   23.0000 	   15.0000 	   36.0283 
    0.6485 	    2.0305 	   23.0000 	   15.0000 	   36.0883 
    0.5722 	    2.0475 	   23.0000 	   15.0000 	   36.1223 
    0.6485 	    2.0635 	   23.0000 	   15.0000 	   36.1543 
    0.6180 	    2.0790 	   23.0000 	   15.0000 	   36.1853 
    0.6332 	    2.0950 	   23.0000 	   15.0000 	   36.2173 
    0.4654 	    2.1100 	   23.0000 	   15.0000 	   36.2473 
    0.8011 	    2.1260 	   23.0000 	   15.0000 	   36.2793 
    0.7553 	    2.1425 	   23.0000 	   15.0000 	   36.3123 
    0.4959 	    2.1600 	   23.0000 	   15.0000 	   36.3473 
    0.6332 	    2.1760 	   23.0000 	   15.0000 	   36.3793 
    0.6485 	    2.1920 	   23.0000 	   15.0000 	   36.4113 
    0.7553 	    2.2065 	   23.0000 	   15.0000 	   36.4403 
    0.6180 	    2.2230 	   23.0000 	   15.0000 	   36.4733 
    0.6943 	    2.2395 	   23.0000 	   15.0000 	   36.5063 
    0.5722 	    2.2565 	   23.0000 	   15.0000 	   36.5403 
    0.5264 	    2.2720 	   23.0000 	   15.0000 	   36.5713 
    0.6485 	    2.2880 	   23.0000 	   15.0000 	   36.6033 
    0.6180 	    2.3045 	   23.0000 	   15.0000 	   36.6363 
    0.6790 	    2.3205 	   23.0000 	   15.0000 	   36.6683 
    0.7553 	    2.3370 	   23.0000 	   15.0000 	   36.7013 
    0.6790 	    2.3540 	   23.0000 	   15.0000 	   36.7354 
    0.8621 	    2.3690 	   23.0000 	   15.0000 	   36.7654 
    0.6943 	    2.3865 	   23.0000 	   15.0000 	   36.8004 
    0.6485 	    2.4025 	   23.0000 	   15.0000 	   36.8324 
    0.7858 	    2.4185 	   23.0000 	   15.0000 	   36.8644 
    0.7553 	    2.4355 	   23.0000 	   15.0000 	   36.8984 
    0.7401 	    2.4500 	   23.0000 	   15.0000 	   36.9274 
    0.6790 	    2.4660 	   23.0000 	   15.0000 	   36.9594 
    0.8316 	    2.4830 	   23.0000 	   15.0000 	   36.9934 
    0.6180 	    2.4980 	   23.0000 	   15.0000 	   37.0234 
    0.5722 	    2.5150 	   23.0000 	   15.0000 	   37.0574 
    0.6027 	    2.5310 	   23.0000 	   15.0000 	   37.0894 
    0.8621 	    2.5475 	   23.0000 	   15.0000 	   37.1224 
    0.7095 	    2.5650 	   23.0000 	   15.0000 	   37.1574 
    0.4196 	    2.5800 	   23.0000 	   15.0000 	   37.1874 
    0.8316 	    2.5970 	   23.0000 	   15.0000 	   37.2214 
    0.7706 	    2.6125 	   23.0000 	   15.0000 	   37.2524 
    0.9384 	    2.6280 	   23.0000 	   15.0000 	   37.2834 
    0.7706 	    2.6450 	   23.0000 	   15.0000 	   37.3174 
    0.7095 	    2.6740 	   23.0000 	   15.0000 	   37.3754 
    0.9384 	    2.6890 	   23.0000 	   15.0000 	   37.4054 
    0.8621 	    2.7055 	   23.0000 	   15.0000 	   37.4384 
    0.6790 	    2.7200 	   23.0000 	   15.0000 	   37.4674 
    0.8469 	    2.7365 	   23.0000 	   15.0000 	   37.5004 
    0.8774 	    2.7515 	   23.0000 	   15.0000 	   37.5304 
    0.7401 	    2.7660 	   23.0000 	   15.0000 	   37.5594 
    0.7553 	    2.7815 	   23.0000 	   15.0000 	   37.5904 
    0.7858 	    2.7970 	   23.0000 	   15.0000 	   37.6214 
    0.8164 	    2.8155 	   23.0000 	   15.0000 	   37.6584 
    0.9995 	    2.8315 	   23.0000 	   15.0000 	   37.6904 
    0.8011 	    2.8485 	   23.0000 	   15.0000 	   37.7244 
    0.9995 	    2.8650 	   23.0000 	   15.0000 	   37.7574 
    0.9232 	    2.8800 	   23.0000 	   15.0000 	   37.7874 
    0.8621 	    2.8965 	   23.0000 	   15.0000 	   37.8204 
    1.0147 	    2.9105 	   23.0000 	   15.0000 	   37.8484 
    0.9079 	    2.9260 	   23.0000 	   15.0000 	   37.8794 
    0.8469 	    2.9555 	   23.0000 	   15.0000 	   37.9384 
    0.8164 	    2.9710 	   23.0000 	   15.0000 	   37.9694 
    0.9384 	    2.9865 	   23.0000 	   15.0000 	   38.0004 
    0.9079 	    3.0020 	   23.0000 	   15.0000 	   38.0314 
    0.8011 	    3.0155 	   23.0000 	   15.0000 	   38.0584 
    0.9232 	    3.0310 	   23.0000 	   15.0000 	   38.0894 
    0.8164 	    3.0445 	   23.0000 	   15.0000 	   38.1164 
    0.6638 	    3.0580 	   23.0000 	   15.0000 	   38.1434 
    0.8316 	    3.0705 	   23.0000 	   15.0000 	   38.1684 
    0.8927 	    3.0850 	   23.0000 	   15.0000 	   38.1974 
    0.8316 	    3.0980 	   23.0000 	   15.0000 	   38.2234 
    0.9079 	    3.1115 	   23.0000 	   15.0000 	   38.2504 
    0.8164 	    3.1265 	   23.0000 	   15.0000 	   38.2794 
    0.8011 	    3.1430 	   23.0000 	   15.0000 	   38.3134 
    0.8621 	    3.1590 	   23.0000 	   15.0000 	   38.3454 
    0.9384 	    3.1750 	   23.0000 	   15.0000 	   38.3774 
    0.8164 	    3.1915 	   23.0000 	   15.0000 	   38.4104 
    0.6332 	    3.2080 	   23.0000 	   15.0000 	   38.4434 
    0.8774 	    3.2235 	   23.0000 	   15.0000 	   38.4744 
    0.9079 	    3.2405 	   23.0000 	   15.0000 	   38.5085 
    0.8316 	    3.2565 	   23.0000 	   15.0000 	   38.5405 
    0.9232 	    3.2720 	   23.0000 	   15.0000 	   38.5715 
    0.9232 	    3.2885 	   23.0000 	   15.0000 	   38.6045 
    0.9995 	    3.3040 	   23.0000 	   15.0000 	   38.6355 
    1.0300 	    3.3190 	   23.0000 	   15.0000 	   38.6655 
    0.9079 	    3.3350 	   23.0000 	   15.0000 	   38.6975 
    1.0147 	    3.3505 	   23.0000 	   15.0000 	   38.7285 
    0.9384 	    3.3660 	   23.0000 	   15.0000 	   38.7595 
    0.9384 	    3.3825 	   23.0000 	   15.0000 	   38.7925 
    1.1521 	    3.3975 	   23.0000 	   15.0000 	   38.8225 
    0.9232 	    3.4120 	   23.0000 	   15.0000 	   38.8515 
    1.0300 	    3.4290 	   23.0000 	   15.0000 	   38.8855 
    0.9537 	    3.4460 	   23.0000 	   15.0000 	   38.9195 
    0.9232 	    3.4615 	   23.0000 	   15.0000 	   38.9505 
    0.9689 	    3.4765 	   23.0000 	   15.0000 	   38.9805 
    1.0605 	    3.4935 	   23.0000 	   15.0000 	   39.0145 
    0.9537 	    3.5090 	   23.0000 	   15.0000 	   39.0455 
    1.1673 	    3.5250 	   23.0000 	   15.0000 	   39.0775 
    0.8774 	    3.5415 	   23.0000 	   15.0000 	   39.1105 
    1.0452 	    3.5570 	   23.0000 	   15.0000 	   39.1415 
    0.7858 	    3.5725 	   23.0000 	   15.0000 	   39.1725 
    1.0758 	    3.5890 	   23.0000 	   15.0000 	   39.2055 
    0.9995 	    3.6035 	   23.0000 	   15.0000 	   39.2345 
    0.9537 	    3.6185 	   23.0000 	   15.0000 	   39.2645 
    1.0605 	    3.6355 	   23.0000 	   15.0000 	   39.2985 
    1.1368 	    3.6510 	   23.0000 	   15.0000 	   39.3295 
    1.0300 	    3.6670 	   23.0000 	   15.0000 	   39.3615 
    0.9995 	    3.6840 	   23.0000 	   15.0000 	   39.3955 
    1.1673 	    3.6985 	   23.0000 	   15.0000 	   39.4245 
    0.9995 	    3.7140 	   23.0000 	   15.0000 	   39.4555 
    0.9384 	    3.7285 	   23.0000 	   15.0000 	   39.4845 
    1.0452 	    3.7450 	   23.0000 	   15.0000 	   39.5175 
    0.9384 	    3.7605 	   23.0000 	   15.0000 	   39.5485 
    0.9842 	    3.7755 	   23.0000 	   15.0000 	   39.5785 
    0.9689 	    3.7945 	   23.0000 	   15.0000 	   39.6165 
    1.0300 	    3.8155 	   23.0000 	   15.0000 	   39.6585 
    1.0758 	    3.8300 	   23.0000 	   15.0000 	   39.6875 
    0.9995 	    3.8470 	   23.0000 	   15.0000 	   39.7215 
    1.0300 	    3.8615 	   23.0000 	   15.0000 	   39.7505 
    0.9232 	    3.8775 	   23.0000 	   15.0000 	   39.7825 
    1.1368 	    3.8940 	   23.0000 	   15.0000 	   39.8155 
    1.1673 	    3.9095 	   23.0000 	   15.0000 	   39.8465 
    1.0452 	    3.9250 	   23.0000 	   15.0000 	   39.8775 
    1.1368 	    3.9420 	   23.0000 	   15.0000 	   39.9115 
    1.1063 	    3.9570 	   23.0000 	   15.0000 	   39.9415 
    1.2894 	    3.9720 	   23.0000 	   15.0000 	   39.9715 
    0.7858 	    3.9875 	   23.0000 	   15.0000 	   40.0025 
    1.2284 	    4.0040 	   23.0000 	   15.0000 	   40.0355 
    1.1826 	    4.0195 	   23.0000 	   15.0000 	   40.0665 
    1.1063 	    4.0365 	   23.0000 	   15.0000 	   40.1005 
    1.0910 	    4.0520 	   23.0000 	   15.0000 	   40.1315 
    1.0147 	    4.0680 	   23.0000 	   15.0000 	   40.1635 
    0.9995 	    4.0845 	   23.0000 	   15.0000 	   40.1965 
    1.1368 	    4.1005 	   23.0000 	   15.0000 	   40.2285 
    0.9995 	    4.1170 	   23.0000 	   15.0000 	   40.2616 
    0.7248 	    4.1335 	   23.0000 	   15.0000 	   40.2946 
    1.1673 	    4.1485 	   23.0000 	   15.0000 	   40.3246 
    1.1215 	    4.1625 	   23.0000 	   15.0000 	   40.3526 
    1.0605 	    4.1770 	   23.0000 	   15.0000 	   40.3816 
    1.1063 	    4.1930 	   23.0000 	   15.0000 	   40.4136 
    1.1063 	    4.2075 	   23.0000 	   15.0000 	   40.4426 
    0.9995 	    4.2240 	   23.0000 	   15.0000 	   40.4756 
    1.1673 	    4.2410 	   23.0000 	   15.0000 	   40.5096 
    0.9995 	    4.2570 	   23.0000 	   15.0000 	   40.5416 
    1.2131 	    4.2720 	   23.0000 	   15.0000 	   40.5716 
    1.0300 	    4.2870 	   23.0000 	   15.0000 	   40.6016 
    1.1521 	    4.3020 	   23.0000 	   15.0000 	   40.6316 
    1.1368 	    4.3195 	   23.0000 	   15.0000 	   40.6666 
    1.1521 	    4.3365 	   23.0000 	   15.0000 	   40.7006 
    1.1215 	    4.3520 	   23.0000 	   15.0000 	   40.7316 
    0.9689 	    4.3675 	   23.0000 	   15.0000 	   40.7626 
    1.2894 	    4.3825 	   23.0000 	   15.0000 	   40.7926 
    1.1826 	    4.3970 	   23.0000 	   15.0000 	   40.8216 
    1.2284 	    4.4120 	   23.0000 	   15.0000 	   40.8516 
    1.1673 	    4.4275 	   23.0000 	   15.0000 	   40.8826 
    0.9995 	    4.4445 	   23.0000 	   15.0000 	   40.9166 
    1.2284 	    4.4595 	   23.0000 	   15.0000 	   40.9466 
    1.0605 	    4.4750 	   23.0000 	   15.0000 	   40.9776 
    0.8621 	    4.4910 	   23.0000 	   15.0000 	   41.0096 
    1.1368 	    4.5080 	   23.0000 	   15.0000 	   41.0436 
    1.2131 	    4.5235 	   23.0000 	   15.0000 	   41.0746 
    1.2589 	    4.5400 	   23.0000 	   15.0000 	   41.1076 
    1.2436 	    4.5560 	   23.0000 	   15.0000 	   41.1396 
    0.9995 	    4.5725 	   23.0000 	   15.0000 	   41.1726 
    1.1368 	    4.5875 	   23.0000 	   15.0000 	   41.2026 
    1.1368 	    4.6025 	   23.0000 	   15.0000 	   41.2326 
    1.2589 	    4.6190 	   23.0000 	   15.0000 	   41.2656 
    1.1826 	    4.6360 	   23.0000 	   15.0000 	   41.2996 
    1.2284 	    4.6520 	   23.0000 	   15.0000 	   41.3316 
    1.2131 	    4.6680 	   23.0000 	   15.0000 	   41.3636 
    1.1978 	    4.6840 	   23.0000 	   15.0000 	   41.3956 
    1.3046 	    4.7000 	   23.0000 	   15.0000 	   41.4276 
    1.2436 	    4.7150 	   23.0000 	   15.0000 	   41.4576 
    1.2894 	    4.7450 	   23.0000 	   15.0000 	   41.5176 
    1.2741 	    4.7605 	   23.0000 	   15.0000 	   41.5486 
    1.1368 	    4.7765 	   23.0000 	   15.0000 	   41.5806 
    1.3352 	    4.7910 	   23.0000 	   15.0000 	   41.6096 
    1.1978 	    4.8155 	   23.0000 	   15.0000 	   41.6586 
    1.1368 	    4.8290 	   23.0000 	   15.0000 	   41.6856 
    1.2436 	    4.8470 	   23.0000 	   15.0000 	   41.7216 
    1.1978 	    4.8625 	   23.0000 	   15.0000 	   41.7526 
    1.1826 	    4.8770 	   23.0000 	   15.0000 	   41.7816 
    1.1673 	    4.8930 	   23.0000 	   15.0000 	   41.8136 
    1.2131 	    4.9105 	   23.0000 	   15.0000 	   41.8486 
    1.2741 	    4.9255 	   23.0000 	   15.0000 	   41.8786 
    1.2131 	    4.9425 	   23.0000 	   15.0000 	   41.9126 
    1.3046 	    4.9570 	   23.0000 	   15.0000 	   41.9417 
    1.2894 	    4.9730 	   23.0000 	   15.0000 	   41.9737 
    1.3199 	    4.9880 	   23.0000 	   15.0000 	   42.0037 
    1.2436 	    5.0035 	   23.0000 	   15.0000 	   42.0347 
    1.2131 	    5.0185 	   23.0000 	   15.0000 	   42.0647 
    0.9079 	    5.0360 	   23.0000 	   15.0000 	   42.0997 
    1.2589 	    5.0510 	   23.0000 	   15.0000 	   42.1297 
    1.2131 	    5.0655 	   23.0000 	   15.0000 	   42.1587 
    1.3962 	    5.0810 	   23.0000 	   15.0000 	   42.1897 
    1.1826 	    5.0965 	   23.0000 	   15.0000 	   42.2207 
    1.2741 	    5.1130 	   23.0000 	   15.0000 	   42.2537 
    1.0452 	    5.1285 	   23.0000 	   15.0000 	   42.2847 
    1.4725 	    5.1450 	   23.0000 	   15.0000 	   42.3177 
    1.2131 	    5.1605 	   23.0000 	   15.0000 	   42.3487 
    1.3199 	    5.1780 	   23.0000 	   15.0000 	   42.3837 
    1.3199 	    5.1945 	   23.0000 	   15.0000 	   42.4167 
    1.2436 	    5.2095 	   23.0000 	   15.0000 	   42.4467 
    1.3504 	    5.2250 	   23.0000 	   15.0000 	   42.4777 
    1.2131 	    5.2410 	   23.0000 	   15.0000 	   42.5097 
    1.2589 	    5.2565 	   23.0000 	   15.0000 	   42.5407 
    1.2894 	    5.2715 	   23.0000 	   15.0000 	   42.5707 
    1.2741 	    5.2855 	   23.0000 	   15.0000 	   42.5987 
    1.0300 	    5.3035 	   23.0000 	   15.0000 	   42.6347 
    1.1978 	    5.3195 	   23.0000 	   15.0000 	   42.6667 
    1.3657 	    5.3375 	   23.0000 	   15.0000 	   42.7027 
    1.2589 	    5.3525 	   23.0000 	   15.0000 	   42.7327 
    1.1978 	    5.3685 	   23.0000 	   15.0000 	   42.7647 
    1.2741 	    5.3850 	   23.0000 	   15.0000 	   42.7977 
    1.2741 	    5.4010 	   23.0000 	   15.0000 	   42.8297 
    1.4115 	    5.4170 	   23.0000 	   15.0000 	   42.8617 
    1.2436 	    5.4340 	   23.0000 	   15.0000 	   42.8957 
    1.3046 	    5.4510 	   23.0000 	   15.0000 	   42.9297 
    1.3199 	    5.4665 	   23.0000 	   15.0000 	   42.9607 
    1.4267 	    5.4830 	   23.0000 	   15.0000 	   42.9937 
    1.3657 	    5.4985 	   23.0000 	   15.0000 	   43.0247 
    1.3504 	    5.5135 	   23.0000 	   15.0000 	   43.0547 
    1.3352 	    5.5290 	   23.0000 	   15.0000 	   43.0857 
    1.2894 	    5.5460 	   23.0000 	   15.0000 	   43.1197 
    1.3504 	    5.5620 	   23.0000 	   15.0000 	   43.1517 
    1.2589 	    5.5770 	   23.0000 	   15.0000 	   43.1817 
    1.3046 	    5.5930 	   23.0000 	   15.0000 	   43.2137 
    1.2436 	    5.6090 	   23.0000 	   15.0000 	   43.2457 
    1.3046 	    5.6255 	   23.0000 	   15.0000 	   43.2787 
    1.3809 	    5.6425 	   23.0000 	   15.0000 	   43.3127 
    1.3352 	    5.6585 	   23.0000 	   15.0000 	   43.3447 
    1.2589 	    5.6750 	   23.0000 	   15.0000 	   43.3777 
    1.3504 	    5.6910 	   23.0000 	   15.0000 	   43.4097 
    1.2436 	    5.7070 	   23.0000 	   15.0000 	   43.4417 
    1.5183 	    5.7225 	   23.0000 	   15.0000 	   43.4727 
    1.2741 	    5.7400 	   23.0000 	   15.0000 	   43.5077 
    1.2894 	    5.7570 	   23.0000 	   15.0000 	   43.5417 
    1.2894 	    5.7720 	   23.0000 	   15.0000 	   43.5717 
    1.1978 	    5.7865 	   23.0000 	   15.0000 	   43.6007 
    1.3504 	    5.8040 	   23.0000 	   15.0000 	   43.6357 
    1.2894 	    5.8200 	   23.0000 	   15.0000 	   43.6677 
    1.3352 	    5.8380 	   23.0000 	   15.0000 	   43.7038 
    1.6098 	    5.8530 	   23.0000 	   15.0000 	   43.7337 
    1.2436 	    5.8690 	   23.0000 	   15.0000 	   43.7658 
    1.3657 	    5.8855 	   23.0000 	   15.0000 	   43.7988 
    1.1826 	    5.9005 	   23.0000 	   15.0000 	   43.8288 
    1.3809 	    5.9165 	   23.0000 	   15.0000 	   43.8608 
    1.3046 	    5.9345 	   23.0000 	   15.0000 	   43.8968 
    1.5335 	    5.9505 	   23.0000 	   15.0000 	   43.9288 
    1.3657 	    5.9660 	   23.0000 	   15.0000 	   43.9598 
    1.4878 	    5.9815 	   23.0000 	   15.0000 	   43.9908 
    1.5793 	    5.9970 	   23.0000 	   15.0000 	   44.0218 
    1.4725 	    6.0125 	   23.0000 	   15.0000 	   44.0528 
    1.2589 	    6.0270 	   23.0000 	   15.0000 	   44.0818 
    1.5030 	    6.0445 	   23.0000 	   15.0000 	   44.1168 
    1.4878 	    6.0605 	   23.0000 	   15.0000 	   44.1488 
    1.4420 	    6.0765 	   23.0000 	   15.0000 	   44.1798 
    1.5335 	    6.0910 	   23.0000 	   15.0000 	   44.2098 
    1.4878 	    6.1070 	   23.0000 	   15.0000 	   44.2418 
    1.5183 	    6.1230 	   23.0000 	   15.0000 	   44.2738 
    1.3504 	    6.1410 	   23.0000 	   15.0000 	   44.3098 
    1.2894 	    6.1575 	   23.0000 	   15.0000 	   44.3428 
    1.2894 	    6.1735 	   23.0000 	   15.0000 	   44.3748 
    1.5030 	    6.1890 	   23.0000 	   15.0000 	   44.4058 
