Thayer School of Engineering        Instron 4442 Mechanical Testing System
7/9/2018 3:11:25 AM

  Force (N)	Extension (mm)	Not Used	Not Used	Not Used	     Hour	    Minute	    Second
    0.6638 	    2.0560 	    3.0000 	   11.0000 	   56.6584 
    0.8316 	    2.1220 	    3.0000 	   11.0000 	   56.6914 
    0.8164 	    2.2620 	    3.0000 	   11.0000 	   56.7614 
    0.7401 	    2.3800 	    3.0000 	   11.0000 	   56.8204 
    0.8316 	    2.4920 	    3.0000 	   11.0000 	   56.8764 
    0.7858 	    2.5980 	    3.0000 	   11.0000 	   56.9294 
    0.7706 	    2.7040 	    3.0000 	   11.0000 	   56.9824 
    0.8774 	    2.8060 	    3.0000 	   11.0000 	   57.0334 
    0.9232 	    2.9040 	    3.0000 	   11.0000 	   57.0824 
    0.8011 	    3.0020 	    3.0000 	   11.0000 	   57.1314 
    0.8927 	    3.1100 	    3.0000 	   11.0000 	   57.1854 
    0.8164 	    3.2160 	    3.0000 	   11.0000 	   57.2384 
    0.8621 	    3.3200 	    3.0000 	   11.0000 	   57.2904 
    1.0147 	    3.4200 	    3.0000 	   11.0000 	   57.3404 
    0.8164 	    3.5200 	    3.0000 	   11.0000 	   57.3904 
    0.9842 	    3.6220 	    3.0000 	   11.0000 	   57.4414 
    0.8316 	    3.7300 	    3.0000 	   11.0000 	   57.4954 
    0.8927 	    3.8360 	    3.0000 	   11.0000 	   57.5484 
    1.0758 	    3.9380 	    3.0000 	   11.0000 	   57.5994 
    0.9537 	    4.0360 	    3.0000 	   11.0000 	   57.6485 
    0.7706 	    4.1360 	    3.0000 	   11.0000 	   57.6985 
    0.9079 	    4.2440 	    3.0000 	   11.0000 	   57.7525 
    1.1063 	    4.3460 	    3.0000 	   11.0000 	   57.8035 
    1.0147 	    4.4480 	    3.0000 	   11.0000 	   57.8545 
    0.9079 	    4.5560 	    3.0000 	   11.0000 	   57.9085 
    0.9995 	    4.6780 	    3.0000 	   11.0000 	   57.9695 
    1.1978 	    4.7920 	    3.0000 	   11.0000 	   58.0265 
    1.0758 	    4.8900 	    3.0000 	   11.0000 	   58.0755 
    0.9995 	    5.0000 	    3.0000 	   11.0000 	   58.1305 
    1.1826 	    5.1040 	    3.0000 	   11.0000 	   58.1825 
    0.9995 	    5.2200 	    3.0000 	   11.0000 	   58.2405 
    1.0147 	    5.3340 	    3.0000 	   11.0000 	   58.2975 
    1.1673 	    5.4380 	    3.0000 	   11.0000 	   58.3495 
    1.0452 	    5.5440 	    3.0000 	   11.0000 	   58.4025 
    1.0910 	    5.6420 	    3.0000 	   11.0000 	   58.4515 
    1.0758 	    5.7540 	    3.0000 	   11.0000 	   58.5075 
    1.0147 	    5.8660 	    3.0000 	   11.0000 	   58.5635 
    1.0300 	    5.9720 	    3.0000 	   11.0000 	   58.6165 
    0.9842 	    6.0360 	    3.0000 	   11.0000 	   58.6485 
    0.9384 	    6.0980 	    3.0000 	   11.0000 	   58.6795 
    1.0452 	    6.2140 	    3.0000 	   11.0000 	   58.7375 
    1.0452 	    6.3160 	    3.0000 	   11.0000 	   58.7885 
    1.0452 	    6.4320 	    3.0000 	   11.0000 	   58.8465 
    0.9079 	    6.4880 	    3.0000 	   11.0000 	   58.8745 
    1.0910 	    6.5460 	    3.0000 	   11.0000 	   58.9035 
    1.1978 	    6.6060 	    3.0000 	   11.0000 	   58.9335 
    1.2436 	    6.6600 	    3.0000 	   11.0000 	   58.9605 
    0.9995 	    6.7720 	    3.0000 	   11.0000 	   59.0165 
    1.0910 	    6.8780 	    3.0000 	   11.0000 	   59.0695 
    1.1978 	    6.9320 	    3.0000 	   11.0000 	   59.0965 
    1.3352 	    6.9880 	    3.0000 	   11.0000 	   59.1245 
    1.1521 	    7.0440 	    3.0000 	   11.0000 	   59.1525 
    1.2284 	    7.1520 	    3.0000 	   11.0000 	   59.2065 
    1.0452 	    7.2160 	    3.0000 	   11.0000 	   59.2385 
    1.2131 	    7.2820 	    3.0000 	   11.0000 	   59.2715 
    1.1673 	    7.3460 	    3.0000 	   11.0000 	   59.3035 
    1.1215 	    7.4100 	    3.0000 	   11.0000 	   59.3355 
    1.1673 	    7.4740 	    3.0000 	   11.0000 	   59.3675 
    1.3962 	    7.5380 	    3.0000 	   11.0000 	   59.3996 
    1.1826 	    7.6020 	    3.0000 	   11.0000 	   59.4316 
    1.2741 	    7.6620 	    3.0000 	   11.0000 	   59.4616 
    1.0910 	    7.7260 	    3.0000 	   11.0000 	   59.4926 
    1.3046 	    7.7880 	    3.0000 	   11.0000 	   59.5246 
    1.2894 	    7.8520 	    3.0000 	   11.0000 	   59.5566 
    1.1063 	    7.9220 	    3.0000 	   11.0000 	   59.5916 
    1.0605 	    7.9840 	    3.0000 	   11.0000 	   59.6226 
    1.1521 	    8.0560 	    3.0000 	   11.0000 	   59.6586 
    1.0758 	    8.1220 	    3.0000 	   11.0000 	   59.6916 
    1.1063 	    8.1900 	    3.0000 	   11.0000 	   59.7256 
    1.1673 	    8.2560 	    3.0000 	   11.0000 	   59.7586 
    1.2284 	    8.3200 	    3.0000 	   11.0000 	   59.7906 
    1.3046 	    8.3880 	    3.0000 	   11.0000 	   59.8246 
    1.1826 	    8.4540 	    3.0000 	   11.0000 	   59.8576 
    1.2589 	    8.5140 	    3.0000 	   11.0000 	   59.8876 
    1.1673 	    8.5740 	    3.0000 	   11.0000 	   59.9176 
    1.1521 	    8.6340 	    3.0000 	   11.0000 	   59.9476 
    1.1215 	    8.6860 	    3.0000 	   11.0000 	   59.9736 
    1.3504 	    8.7440 	    3.0000 	   12.0000 	    0.0026 
    1.2284 	    8.7960 	    3.0000 	   12.0000 	    0.0286 
    1.0605 	    8.8540 	    3.0000 	   12.0000 	    0.0576 
    1.2741 	    8.9040 	    3.0000 	   12.0000 	    0.0826 
    1.2284 	    8.9560 	    3.0000 	   12.0000 	    0.1086 
    1.1521 	    9.0100 	    3.0000 	   12.0000 	    0.1356 
    1.2589 	    9.0640 	    3.0000 	   12.0000 	    0.1626 
    1.2436 	    9.1260 	    3.0000 	   12.0000 	    0.1936 
    1.1826 	    9.1880 	    3.0000 	   12.0000 	    0.2246 
    1.2131 	    9.2560 	    3.0000 	   12.0000 	    0.2586 
    1.2589 	    9.3180 	    3.0000 	   12.0000 	    0.2896 
    1.2741 	    9.3880 	    3.0000 	   12.0000 	    0.3246 
    1.1215 	    9.4520 	    3.0000 	   12.0000 	    0.3566 
    1.1215 	    9.5180 	    3.0000 	   12.0000 	    0.3896 
    1.4725 	    9.5800 	    3.0000 	   12.0000 	    0.4206 
    1.2284 	    9.6520 	    3.0000 	   12.0000 	    0.4566 
    1.1215 	    9.7180 	    3.0000 	   12.0000 	    0.4896 
    0.9689 	    9.7880 	    3.0000 	   12.0000 	    0.5246 
    1.1063 	    9.8560 	    3.0000 	   12.0000 	    0.5586 
    1.2894 	    9.9180 	    3.0000 	   12.0000 	    0.5896 
    1.2436 	    9.9860 	    3.0000 	   12.0000 	    0.6236 
    1.2894 	   10.0540 	    3.0000 	   12.0000 	    0.6576 
    1.4115 	   10.1160 	    3.0000 	   12.0000 	    0.6886 
    1.2284 	   10.1840 	    3.0000 	   12.0000 	    0.7226 
    1.3046 	   10.2480 	    3.0000 	   12.0000 	    0.7546 
    1.3352 	   10.3020 	    3.0000 	   12.0000 	    0.7816 
    1.2894 	   10.3580 	    3.0000 	   12.0000 	    0.8096 
    1.3352 	   10.4100 	    3.0000 	   12.0000 	    0.8356 
    1.2894 	   10.4620 	    3.0000 	   12.0000 	    0.8616 
    1.4420 	   10.5200 	    3.0000 	   12.0000 	    0.8906 
    1.2436 	   10.5720 	    3.0000 	   12.0000 	    0.9166 
    1.2284 	   10.6300 	    3.0000 	   12.0000 	    0.9456 
    1.3962 	   10.6820 	    3.0000 	   12.0000 	    0.9706 
    1.3657 	   10.7420 	    3.0000 	   12.0000 	    1.0016 
    1.4572 	   10.7940 	    3.0000 	   12.0000 	    1.0276 
    1.3046 	   10.8520 	    3.0000 	   12.0000 	    1.0566 
    1.3504 	   10.9040 	    3.0000 	   12.0000 	    1.0826 
    1.2894 	   10.9560 	    3.0000 	   12.0000 	    1.1087 
    1.4267 	   11.0100 	    3.0000 	   12.0000 	    1.1357 
    1.2741 	   11.0660 	    3.0000 	   12.0000 	    1.1637 
    1.6098 	   11.1300 	    3.0000 	   12.0000 	    1.1957 
    1.4267 	   11.1900 	    3.0000 	   12.0000 	    1.2257 
    1.1826 	   11.2520 	    3.0000 	   12.0000 	    1.2567 
    1.3809 	   11.3140 	    3.0000 	   12.0000 	    1.2877 
    1.2894 	   11.3800 	    3.0000 	   12.0000 	    1.3207 
    1.3504 	   11.4440 	    3.0000 	   12.0000 	    1.3527 
    1.3046 	   11.5000 	    3.0000 	   12.0000 	    1.3807 
    1.3504 	   11.5640 	    3.0000 	   12.0000 	    1.4127 
    1.2589 	   11.6200 	    3.0000 	   12.0000 	    1.4407 
    1.3504 	   11.6820 	    3.0000 	   12.0000 	    1.4717 
    1.3046 	   11.7540 	    3.0000 	   12.0000 	    1.5077 
    1.3504 	   11.8180 	    3.0000 	   12.0000 	    1.5397 
    1.3657 	   11.8820 	    3.0000 	   12.0000 	    1.5717 
    1.5335 	   11.9500 	    3.0000 	   12.0000 	    1.6057 
    1.3809 	   12.0200 	    3.0000 	   12.0000 	    1.6407 
    1.1521 	   12.0820 	    3.0000 	   12.0000 	    1.6717 
    1.3809 	   12.1500 	    3.0000 	   12.0000 	    1.7057 
    1.1215 	   12.2140 	    3.0000 	   12.0000 	    1.7377 
    1.0452 	   12.2740 	    3.0000 	   12.0000 	    1.7677 
    1.4420 	   12.3400 	    3.0000 	   12.0000 	    1.8007 
    1.5030 	   12.4000 	    3.0000 	   12.0000 	    1.8307 
    1.5335 	   12.4560 	    3.0000 	   12.0000 	    1.8587 
    1.3504 	   12.5160 	    3.0000 	   12.0000 	    1.8887 
    1.4115 	   12.5740 	    3.0000 	   12.0000 	    1.9177 
    1.4878 	   12.6300 	    3.0000 	   12.0000 	    1.9457 
    1.4115 	   12.6840 	    3.0000 	   12.0000 	    1.9727 
    1.3962 	   12.7440 	    3.0000 	   12.0000 	    2.0027 
    1.4878 	   12.7980 	    3.0000 	   12.0000 	    2.0287 
    1.3809 	   12.8480 	    3.0000 	   12.0000 	    2.0547 
    1.5946 	   12.9020 	    3.0000 	   12.0000 	    2.0817 
    1.4420 	   12.9560 	    3.0000 	   12.0000 	    2.1087 
    1.5030 	   13.0100 	    3.0000 	   12.0000 	    2.1357 
    1.6098 	   13.0660 	    3.0000 	   12.0000 	    2.1637 
    1.3809 	   13.1300 	    3.0000 	   12.0000 	    2.1957 
    1.4725 	   13.1920 	    3.0000 	   12.0000 	    2.2267 
    1.4420 	   13.2540 	    3.0000 	   12.0000 	    2.2577 
    1.1978 	   13.3120 	    3.0000 	   12.0000 	    2.2867 
    1.5335 	   13.3780 	    3.0000 	   12.0000 	    2.3197 
    1.5030 	   13.4360 	    3.0000 	   12.0000 	    2.3487 
    1.5183 	   13.4940 	    3.0000 	   12.0000 	    2.3777 
    1.6861 	   13.5540 	    3.0000 	   12.0000 	    2.4077 
    1.5030 	   13.6160 	    3.0000 	   12.0000 	    2.4387 
    1.6861 	   13.6780 	    3.0000 	   12.0000 	    2.4697 
    1.4420 	   13.7480 	    3.0000 	   12.0000 	    2.5047 
    1.5640 	   13.8100 	    3.0000 	   12.0000 	    2.5357 
    1.5640 	   13.8760 	    3.0000 	   12.0000 	    2.5687 
    1.5946 	   13.9440 	    3.0000 	   12.0000 	    2.6027 
    1.5640 	   14.0000 	    3.0000 	   12.0000 	    2.6307 
    1.5030 	   14.0620 	    3.0000 	   12.0000 	    2.6617 
    1.5640 	   14.1260 	    3.0000 	   12.0000 	    2.6937 
    1.5488 	   14.1920 	    3.0000 	   12.0000 	    2.7267 
    1.5183 	   14.2540 	    3.0000 	   12.0000 	    2.7577 
    1.5030 	   14.3180 	    3.0000 	   12.0000 	    2.7897 
    1.5488 	   14.3900 	    3.0000 	   12.0000 	    2.8257 
    1.4878 	   14.4520 	    3.0000 	   12.0000 	    2.8568 
    1.3809 	   14.5120 	    3.0000 	   12.0000 	    2.8868 
    1.4115 	   14.5740 	    3.0000 	   12.0000 	    2.9178 
    1.4420 	   14.6360 	    3.0000 	   12.0000 	    2.9488 
    1.5640 	   14.6900 	    3.0000 	   12.0000 	    2.9758 
    1.5335 	   14.7440 	    3.0000 	   12.0000 	    3.0028 
    1.5335 	   14.7960 	    3.0000 	   12.0000 	    3.0288 
    1.5030 	   14.8500 	    3.0000 	   12.0000 	    3.0558 
    1.5793 	   14.9080 	    3.0000 	   12.0000 	    3.0848 
    1.4878 	   14.9580 	    3.0000 	   12.0000 	    3.1098 
    1.3657 	   15.0140 	    3.0000 	   12.0000 	    3.1378 
    1.4725 	   15.0700 	    3.0000 	   12.0000 	    3.1658 
    1.4878 	   15.1360 	    3.0000 	   12.0000 	    3.1988 
    1.4420 	   15.1960 	    3.0000 	   12.0000 	    3.2288 
    1.6556 	   15.2540 	    3.0000 	   12.0000 	    3.2578 
    1.5793 	   15.3160 	    3.0000 	   12.0000 	    3.2888 
    1.5335 	   15.3860 	    3.0000 	   12.0000 	    3.3238 
    1.5793 	   15.4500 	    3.0000 	   12.0000 	    3.3558 
    1.4115 	   15.5140 	    3.0000 	   12.0000 	    3.3878 
    1.5030 	   15.5820 	    3.0000 	   12.0000 	    3.4218 
    1.5488 	   15.6440 	    3.0000 	   12.0000 	    3.4528 
    1.2894 	   15.7080 	    3.0000 	   12.0000 	    3.4848 
    1.3504 	   15.7780 	    3.0000 	   12.0000 	    3.5198 
    1.6251 	   15.8380 	    3.0000 	   12.0000 	    3.5498 
    1.6098 	   15.8980 	    3.0000 	   12.0000 	    3.5798 
    1.7014 	   15.9660 	    3.0000 	   12.0000 	    3.6138 
    1.6556 	   16.0240 	    3.0000 	   12.0000 	    3.6428 
    1.5640 	   16.0940 	    3.0000 	   12.0000 	    3.6778 
    1.2741 	   16.1620 	    3.0000 	   12.0000 	    3.7118 
    1.5793 	   16.2200 	    3.0000 	   12.0000 	    3.7408 
    1.6251 	   16.2840 	    3.0000 	   12.0000 	    3.7728 
    1.5030 	   16.3540 	    3.0000 	   12.0000 	    3.8078 
    1.6251 	   16.4160 	    3.0000 	   12.0000 	    3.8388 
    1.7472 	   16.4780 	    3.0000 	   12.0000 	    3.8698 
    1.4878 	   16.5420 	    3.0000 	   12.0000 	    3.9018 
    1.3809 	   16.5980 	    3.0000 	   12.0000 	    3.9298 
    1.5946 	   16.6520 	    3.0000 	   12.0000 	    3.9568 
    1.6709 	   16.7040 	    3.0000 	   12.0000 	    3.9828 
    1.6251 	   16.7640 	    3.0000 	   12.0000 	    4.0128 
    1.5640 	   16.8160 	    3.0000 	   12.0000 	    4.0388 
    1.7624 	   16.8720 	    3.0000 	   12.0000 	    4.0668 
    1.6861 	   16.9300 	    3.0000 	   12.0000 	    4.0958 
    1.6556 	   16.9780 	    3.0000 	   12.0000 	    4.1198 
    1.7319 	   17.0300 	    3.0000 	   12.0000 	    4.1458 
    1.4420 	   17.0820 	    3.0000 	   12.0000 	    4.1718 
    1.6861 	   17.1500 	    3.0000 	   12.0000 	    4.2058 
    1.6861 	   17.2160 	    3.0000 	   12.0000 	    4.2388 
    1.7929 	   17.2800 	    3.0000 	   12.0000 	    4.2708 
    1.5793 	   17.3500 	    3.0000 	   12.0000 	    4.3058 
    1.7166 	   17.4180 	    3.0000 	   12.0000 	    4.3398 
    1.5793 	   17.4860 	    3.0000 	   12.0000 	    4.3738 
    1.6251 	   17.5540 	    3.0000 	   12.0000 	    4.4078 
    1.5793 	   17.6160 	    3.0000 	   12.0000 	    4.4388 
    1.7472 	   17.6820 	    3.0000 	   12.0000 	    4.4718 
    1.6556 	   17.7460 	    3.0000 	   12.0000 	    4.5038 
    1.3046 	   17.8080 	    3.0000 	   12.0000 	    4.5348 
    1.6556 	   17.8660 	    3.0000 	   12.0000 	    4.5638 
    1.5640 	   17.9340 	    3.0000 	   12.0000 	    4.5979 
    1.4115 	   17.9940 	    3.0000 	   12.0000 	    4.6279 
    1.7014 	   18.0540 	    3.0000 	   12.0000 	    4.6579 
    1.6403 	   18.1180 	    3.0000 	   12.0000 	    4.6899 
    1.8082 	   18.1880 	    3.0000 	   12.0000 	    4.7249 
    1.6709 	   18.2480 	    3.0000 	   12.0000 	    4.7549 
    1.6556 	   18.3120 	    3.0000 	   12.0000 	    4.7869 
    1.7777 	   18.3740 	    3.0000 	   12.0000 	    4.8179 
    1.7014 	   18.4460 	    3.0000 	   12.0000 	    4.8539 
    1.6251 	   18.5040 	    3.0000 	   12.0000 	    4.8829 
    1.7319 	   18.5600 	    3.0000 	   12.0000 	    4.9109 
    1.7929 	   18.6320 	    3.0000 	   12.0000 	    4.9469 
    1.7777 	   18.6860 	    3.0000 	   12.0000 	    4.9739 
    1.6861 	   18.7420 	    3.0000 	   12.0000 	    5.0019 
    1.7929 	   18.7940 	    3.0000 	   12.0000 	    5.0279 
    1.7166 	   18.8480 	    3.0000 	   12.0000 	    5.0549 
    1.6709 	   18.9140 	    3.0000 	   12.0000 	    5.0879 
    1.8082 	   18.9700 	    3.0000 	   12.0000 	    5.1159 
    1.7166 	   19.0260 	    3.0000 	   12.0000 	    5.1439 
    1.7472 	   19.0820 	    3.0000 	   12.0000 	    5.1719 
    1.9608 	   19.1440 	    3.0000 	   12.0000 	    5.2029 
    1.8692 	   19.1980 	    3.0000 	   12.0000 	    5.2299 
    1.8540 	   19.2540 	    3.0000 	   12.0000 	    5.2579 
    1.6709 	   19.3100 	    3.0000 	   12.0000 	    5.2859 
    1.6556 	   19.3720 	    3.0000 	   12.0000 	    5.3169 
    1.6709 	   19.4300 	    3.0000 	   12.0000 	    5.3459 
    1.6709 	   19.4880 	    3.0000 	   12.0000 	    5.3749 
    1.7472 	   19.5500 	    3.0000 	   12.0000 	    5.4059 
    1.8387 	   19.6200 	    3.0000 	   12.0000 	    5.4409 
    1.8540 	   19.6880 	    3.0000 	   12.0000 	    5.4749 
    1.8997 	   19.7460 	    3.0000 	   12.0000 	    5.5039 
    1.8082 	   19.8080 	    3.0000 	   12.0000 	    5.5349 
    1.6403 	   19.8660 	    3.0000 	   12.0000 	    5.5639 
    1.7624 	   19.9300 	    3.0000 	   12.0000 	    5.5959 
    1.7929 	   19.9920 	    3.0000 	   12.0000 	    5.6269 
    1.8997 	   20.0540 	    3.0000 	   12.0000 	    5.6579 
    1.8387 	   20.1140 	    3.0000 	   12.0000 	    5.6879 
    1.9455 	   20.1760 	    3.0000 	   12.0000 	    5.7189 
    1.7472 	   20.2360 	    3.0000 	   12.0000 	    5.7489 
    1.7777 	   20.2980 	    3.0000 	   12.0000 	    5.7799 
    1.8540 	   20.3600 	    3.0000 	   12.0000 	    5.8109 
    1.8235 	   20.4220 	    3.0000 	   12.0000 	    5.8419 
    1.9303 	   20.4820 	    3.0000 	   12.0000 	    5.8719 
    1.8235 	   20.5420 	    3.0000 	   12.0000 	    5.9019 
    1.7472 	   20.5980 	    3.0000 	   12.0000 	    5.9299 
    1.7624 	   20.6600 	    3.0000 	   12.0000 	    5.9609 
    1.9150 	   20.7180 	    3.0000 	   12.0000 	    5.9899 
    1.9608 	   20.7720 	    3.0000 	   12.0000 	    6.0169 
    1.7472 	   20.8260 	    3.0000 	   12.0000 	    6.0439 
    1.8997 	   20.8800 	    3.0000 	   12.0000 	    6.0709 
    1.8387 	   20.9340 	    3.0000 	   12.0000 	    6.0979 
    1.8692 	   20.9840 	    3.0000 	   12.0000 	    6.1229 
    1.8387 	   21.0380 	    3.0000 	   12.0000 	    6.1499 
    1.5793 	   21.0880 	    3.0000 	   12.0000 	    6.1749 
    1.7319 	   21.1480 	    3.0000 	   12.0000 	    6.2049 
    1.9455 	   21.2040 	    3.0000 	   12.0000 	    6.2329 
    2.0829 	   21.2580 	    3.0000 	   12.0000 	    6.2599 
    1.8387 	   21.3120 	    3.0000 	   12.0000 	    6.2869 
    1.7777 	   21.3700 	    3.0000 	   12.0000 	    6.3159 
    1.9303 	   21.4220 	    3.0000 	   12.0000 	    6.3419 
    1.8387 	   21.4780 	    3.0000 	   12.0000 	    6.3700 
    1.8082 	   21.5300 	    3.0000 	   12.0000 	    6.3960 
    1.8235 	   21.5900 	    3.0000 	   12.0000 	    6.4260 
    1.7929 	   21.6580 	    3.0000 	   12.0000 	    6.4600 
    1.8692 	   21.7200 	    3.0000 	   12.0000 	    6.4910 
    2.0218 	   21.7860 	    3.0000 	   12.0000 	    6.5230 
    1.9455 	   21.8480 	    3.0000 	   12.0000 	    6.5550 
    1.9608 	   21.9180 	    3.0000 	   12.0000 	    6.5900 
    1.9760 	   21.9800 	    3.0000 	   12.0000 	    6.6210 
    1.5946 	   22.0340 	    3.0000 	   12.0000 	    6.6480 
    1.7014 	   22.0880 	    3.0000 	   12.0000 	    6.6750 
    2.0066 	   22.1480 	    3.0000 	   12.0000 	    6.7050 
    1.8235 	   22.2060 	    3.0000 	   12.0000 	    6.7340 
    1.9455 	   22.2620 	    3.0000 	   12.0000 	    6.7620 
    1.9455 	   22.3220 	    3.0000 	   12.0000 	    6.7920 
    1.8692 	   22.3840 	    3.0000 	   12.0000 	    6.8230 
    1.9303 	   22.4480 	    3.0000 	   12.0000 	    6.8550 
    1.9455 	   22.5100 	    3.0000 	   12.0000 	    6.8860 
    1.9913 	   22.5640 	    3.0000 	   12.0000 	    6.9130 
    1.8997 	   22.6280 	    3.0000 	   12.0000 	    6.9450 
    1.8082 	   22.6860 	    3.0000 	   12.0000 	    6.9740 
    1.9913 	   22.7440 	    3.0000 	   12.0000 	    7.0030 
    1.8692 	   22.8000 	    3.0000 	   12.0000 	    7.0310 
    1.8845 	   22.8560 	    3.0000 	   12.0000 	    7.0590 
    2.0371 	   22.9120 	    3.0000 	   12.0000 	    7.0870 
    1.9608 	   22.9640 	    3.0000 	   12.0000 	    7.1130 
    1.8387 	   23.0180 	    3.0000 	   12.0000 	    7.1400 
    1.8692 	   23.0700 	    3.0000 	   12.0000 	    7.1660 
    1.9455 	   23.1360 	    3.0000 	   12.0000 	    7.1990 
    1.9455 	   23.2000 	    3.0000 	   12.0000 	    7.2310 
    2.0066 	   23.2620 	    3.0000 	   12.0000 	    7.2620 
    1.9608 	   23.3220 	    3.0000 	   12.0000 	    7.2920 
    1.8845 	   23.3860 	    3.0000 	   12.0000 	    7.3240 
    2.1744 	   23.4500 	    3.0000 	   12.0000 	    7.3560 
    1.8997 	   23.5160 	    3.0000 	   12.0000 	    7.3880 
    1.9455 	   23.5840 	    3.0000 	   12.0000 	    7.4220 
    1.9455 	   23.6540 	    3.0000 	   12.0000 	    7.4570 
    2.0523 	   23.7180 	    3.0000 	   12.0000 	    7.4890 
    2.1286 	   23.7820 	    3.0000 	   12.0000 	    7.5210 
    1.8845 	   23.8500 	    3.0000 	   12.0000 	    7.5550 
    2.0981 	   23.9120 	    3.0000 	   12.0000 	    7.5860 
    2.0371 	   23.9740 	    3.0000 	   12.0000 	    7.6170 
