Thayer School of Engineering        Instron 4442 Mechanical Testing System
7/5/2018 7:56:27 AM

  Force (N)	Extension (mm)	Not Used	Not Used	Not Used	     Hour	    Minute	    Second
    0.3281 	    0.5105 	    7.0000 	   57.0000 	    4.0999 
    0.5112 	    0.5260 	    7.0000 	   57.0000 	    4.1309 
    0.5875 	    0.5590 	    7.0000 	   57.0000 	    4.1969 
    0.5264 	    0.5885 	    7.0000 	   57.0000 	    4.2559 
    0.5264 	    0.6155 	    7.0000 	   57.0000 	    4.3099 
    0.5264 	    0.6405 	    7.0000 	   57.0000 	    4.3599 
    0.2823 	    0.6550 	    7.0000 	   57.0000 	    4.3889 
    0.4959 	    0.6690 	    7.0000 	   57.0000 	    4.4169 
    0.4501 	    0.6970 	    7.0000 	   57.0000 	    4.4729 
    0.4959 	    0.7220 	    7.0000 	   57.0000 	    4.5229 
    0.3433 	    0.7520 	    7.0000 	   57.0000 	    4.5829 
    0.4959 	    0.7805 	    7.0000 	   57.0000 	    4.6399 
    0.4501 	    0.8055 	    7.0000 	   57.0000 	    4.6899 
    0.4501 	    0.8340 	    7.0000 	   57.0000 	    4.7469 
    0.6332 	    0.8595 	    7.0000 	   57.0000 	    4.7979 
    0.5722 	    0.8735 	    7.0000 	   57.0000 	    4.8259 
    0.4501 	    0.9010 	    7.0000 	   57.0000 	    4.8810 
    0.5722 	    0.9170 	    7.0000 	   57.0000 	    4.9130 
    0.4654 	    0.9455 	    7.0000 	   57.0000 	    4.9700 
    0.5417 	    0.9705 	    7.0000 	   57.0000 	    5.0200 
    0.4044 	    0.9950 	    7.0000 	   57.0000 	    5.0690 
    0.4807 	    1.0100 	    7.0000 	   57.0000 	    5.0990 
    0.3738 	    1.0375 	    7.0000 	   57.0000 	    5.1540 
    0.4654 	    1.0640 	    7.0000 	   57.0000 	    5.2070 
    0.4501 	    1.0880 	    7.0000 	   57.0000 	    5.2550 
    0.3891 	    1.1130 	    7.0000 	   57.0000 	    5.3050 
    0.4807 	    1.1380 	    7.0000 	   57.0000 	    5.3550 
    0.4349 	    1.1630 	    7.0000 	   57.0000 	    5.4050 
    0.4654 	    1.1875 	    7.0000 	   57.0000 	    5.4540 
    0.4807 	    1.2120 	    7.0000 	   57.0000 	    5.5030 
    0.5264 	    1.2395 	    7.0000 	   57.0000 	    5.5580 
    0.4044 	    1.2540 	    7.0000 	   57.0000 	    5.5870 
    0.6027 	    1.2685 	    7.0000 	   57.0000 	    5.6160 
    0.4196 	    1.2975 	    7.0000 	   57.0000 	    5.6740 
    0.4807 	    1.3225 	    7.0000 	   57.0000 	    5.7240 
    0.4654 	    1.3480 	    7.0000 	   57.0000 	    5.7750 
    0.4959 	    1.3715 	    7.0000 	   57.0000 	    5.8220 
    0.4044 	    1.3850 	    7.0000 	   57.0000 	    5.8490 
    0.2365 	    1.3990 	    7.0000 	   57.0000 	    5.8770 
    0.4501 	    1.4270 	    7.0000 	   57.0000 	    5.9330 
    0.4349 	    1.4515 	    7.0000 	   57.0000 	    5.9820 
    0.4654 	    1.4755 	    7.0000 	   57.0000 	    6.0300 
    0.4807 	    1.5005 	    7.0000 	   57.0000 	    6.0800 
    0.6638 	    1.5250 	    7.0000 	   57.0000 	    6.1290 
    0.5264 	    1.5390 	    7.0000 	   57.0000 	    6.1570 
    0.3586 	    1.5650 	    7.0000 	   57.0000 	    6.2090 
    0.5417 	    1.5800 	    7.0000 	   57.0000 	    6.2390 
    0.4654 	    1.6065 	    7.0000 	   57.0000 	    6.2920 
    0.5112 	    1.6215 	    7.0000 	   57.0000 	    6.3220 
    0.4654 	    1.6350 	    7.0000 	   57.0000 	    6.3490 
    0.3586 	    1.6485 	    7.0000 	   57.0000 	    6.3760 
    0.4959 	    1.6630 	    7.0000 	   57.0000 	    6.4050 
    0.6180 	    1.6800 	    7.0000 	   57.0000 	    6.4390 
    0.4349 	    1.6960 	    7.0000 	   57.0000 	    6.4710 
    0.5417 	    1.7130 	    7.0000 	   57.0000 	    6.5050 
    0.4349 	    1.7295 	    7.0000 	   57.0000 	    6.5380 
    0.5875 	    1.7450 	    7.0000 	   57.0000 	    6.5690 
    0.4654 	    1.7605 	    7.0000 	   57.0000 	    6.6000 
    0.4501 	    1.7755 	    7.0000 	   57.0000 	    6.6301 
    0.1755 	    1.7900 	    7.0000 	   57.0000 	    6.6591 
    0.5417 	    1.8045 	    7.0000 	   57.0000 	    6.6881 
    0.4807 	    1.8325 	    7.0000 	   57.0000 	    6.7441 
    0.4654 	    1.8465 	    7.0000 	   57.0000 	    6.7721 
    0.4196 	    1.8610 	    7.0000 	   57.0000 	    6.8011 
   -0.0381 	    1.8760 	    7.0000 	   57.0000 	    6.8311 
    0.4044 	    1.8910 	    7.0000 	   57.0000 	    6.8611 
    0.5722 	    1.9235 	    7.0000 	   57.0000 	    6.9261 
    0.4959 	    1.9405 	    7.0000 	   57.0000 	    6.9601 
    0.5417 	    1.9570 	    7.0000 	   57.0000 	    6.9931 
    0.4501 	    1.9725 	    7.0000 	   57.0000 	    7.0241 
    0.4807 	    1.9900 	    7.0000 	   57.0000 	    7.0591 
    0.5112 	    2.0050 	    7.0000 	   57.0000 	    7.0891 
    0.4501 	    2.0205 	    7.0000 	   57.0000 	    7.1201 
    0.5875 	    2.0365 	    7.0000 	   57.0000 	    7.1521 
    0.4501 	    2.0530 	    7.0000 	   57.0000 	    7.1851 
    0.3128 	    2.0685 	    7.0000 	   57.0000 	    7.2161 
    0.6027 	    2.0840 	    7.0000 	   57.0000 	    7.2471 
    0.4044 	    2.1000 	    7.0000 	   57.0000 	    7.2791 
    0.5570 	    2.1165 	    7.0000 	   57.0000 	    7.3111 
    0.3281 	    2.1325 	    7.0000 	   57.0000 	    7.3441 
    0.4654 	    2.1465 	    7.0000 	   57.0000 	    7.3721 
    0.4349 	    2.1635 	    7.0000 	   57.0000 	    7.4061 
    0.4807 	    2.1790 	    7.0000 	   57.0000 	    7.4371 
    0.5722 	    2.1960 	    7.0000 	   57.0000 	    7.4711 
    0.1755 	    2.2115 	    7.0000 	   57.0000 	    7.5021 
    0.4196 	    2.2275 	    7.0000 	   57.0000 	    7.5341 
    0.3891 	    2.2430 	    7.0000 	   57.0000 	    7.5651 
    0.6180 	    2.2580 	    7.0000 	   57.0000 	    7.5951 
    0.5112 	    2.2725 	    7.0000 	   57.0000 	    7.6241 
    0.5875 	    2.2855 	    7.0000 	   57.0000 	    7.6501 
    0.4959 	    2.3010 	    7.0000 	   57.0000 	    7.6811 
    0.6180 	    2.3150 	    7.0000 	   57.0000 	    7.7091 
    0.4349 	    2.3295 	    7.0000 	   57.0000 	    7.7381 
    0.5722 	    2.3435 	    7.0000 	   57.0000 	    7.7661 
    0.3891 	    2.3580 	    7.0000 	   57.0000 	    7.7951 
    0.5875 	    2.3725 	    7.0000 	   57.0000 	    7.8241 
    0.4959 	    2.3845 	    7.0000 	   57.0000 	    7.8481 
    0.5112 	    2.3985 	    7.0000 	   57.0000 	    7.8761 
    0.4349 	    2.4130 	    7.0000 	   57.0000 	    7.9051 
    0.6790 	    2.4260 	    7.0000 	   57.0000 	    7.9311 
    0.4349 	    2.4410 	    7.0000 	   57.0000 	    7.9611 
    0.5417 	    2.4575 	    7.0000 	   57.0000 	    7.9941 
    0.4044 	    2.4745 	    7.0000 	   57.0000 	    8.0281 
    0.3281 	    2.4905 	    7.0000 	   57.0000 	    8.0601 
    0.4654 	    2.5055 	    7.0000 	   57.0000 	    8.0901 
    0.3891 	    2.5215 	    7.0000 	   57.0000 	    8.1221 
    0.6180 	    2.5385 	    7.0000 	   57.0000 	    8.1551 
    0.5722 	    2.5535 	    7.0000 	   57.0000 	    8.1861 
    0.5112 	    2.5705 	    7.0000 	   57.0000 	    8.2201 
    0.5264 	    2.5870 	    7.0000 	   57.0000 	    8.2531 
    0.6180 	    2.6030 	    7.0000 	   57.0000 	    8.2851 
    0.5264 	    2.6200 	    7.0000 	   57.0000 	    8.3191 
    0.5570 	    2.6365 	    7.0000 	   57.0000 	    8.3521 
    0.4196 	    2.6515 	    7.0000 	   57.0000 	    8.3822 
    0.4959 	    2.6685 	    7.0000 	   57.0000 	    8.4162 
    0.4349 	    2.6845 	    7.0000 	   57.0000 	    8.4482 
    0.5112 	    2.6985 	    7.0000 	   57.0000 	    8.4762 
    0.4501 	    2.7150 	    7.0000 	   57.0000 	    8.5092 
    0.4959 	    2.7305 	    7.0000 	   57.0000 	    8.5402 
    0.6027 	    2.7475 	    7.0000 	   57.0000 	    8.5742 
    0.4044 	    2.7620 	    7.0000 	   57.0000 	    8.6032 
    0.4654 	    2.7750 	    7.0000 	   57.0000 	    8.6292 
    0.6332 	    2.7900 	    7.0000 	   57.0000 	    8.6592 
    0.5417 	    2.8040 	    7.0000 	   57.0000 	    8.6872 
    0.4349 	    2.8175 	    7.0000 	   57.0000 	    8.7142 
    0.4349 	    2.8325 	    7.0000 	   57.0000 	    8.7442 
    0.4196 	    2.8455 	    7.0000 	   57.0000 	    8.7702 
    0.3738 	    2.8585 	    7.0000 	   57.0000 	    8.7962 
    0.2518 	    2.8720 	    7.0000 	   57.0000 	    8.8232 
    0.5264 	    2.8855 	    7.0000 	   57.0000 	    8.8502 
    0.3738 	    2.8980 	    7.0000 	   57.0000 	    8.8752 
    0.4196 	    2.9120 	    7.0000 	   57.0000 	    8.9032 
    0.5722 	    2.9270 	    7.0000 	   57.0000 	    8.9332 
    0.6180 	    2.9435 	    7.0000 	   57.0000 	    8.9662 
    0.4349 	    2.9580 	    7.0000 	   57.0000 	    8.9952 
    0.4196 	    2.9725 	    7.0000 	   57.0000 	    9.0242 
    0.4807 	    2.9900 	    7.0000 	   57.0000 	    9.0592 
    0.4196 	    3.0040 	    7.0000 	   57.0000 	    9.0872 
    0.6027 	    3.0190 	    7.0000 	   57.0000 	    9.1172 
    0.3738 	    3.0355 	    7.0000 	   57.0000 	    9.1502 
    0.4654 	    3.0510 	    7.0000 	   57.0000 	    9.1812 
    0.4196 	    3.0655 	    7.0000 	   57.0000 	    9.2102 
    0.4501 	    3.0820 	    7.0000 	   57.0000 	    9.2432 
    0.5264 	    3.0970 	    7.0000 	   57.0000 	    9.2732 
    0.4959 	    3.1120 	    7.0000 	   57.0000 	    9.3032 
    0.6180 	    3.1285 	    7.0000 	   57.0000 	    9.3362 
    0.4196 	    3.1455 	    7.0000 	   57.0000 	    9.3702 
    0.2213 	    3.1615 	    7.0000 	   57.0000 	    9.4022 
    0.4196 	    3.1775 	    7.0000 	   57.0000 	    9.4342 
    0.5264 	    3.1935 	    7.0000 	   57.0000 	    9.4662 
    0.5112 	    3.2070 	    7.0000 	   57.0000 	    9.4932 
    0.4196 	    3.2220 	    7.0000 	   57.0000 	    9.5232 
    0.5112 	    3.2385 	    7.0000 	   57.0000 	    9.5562 
    0.3891 	    3.2540 	    7.0000 	   57.0000 	    9.5872 
    0.5417 	    3.2680 	    7.0000 	   57.0000 	    9.6152 
    0.0687 	    3.2830 	    7.0000 	   57.0000 	    9.6452 
    0.4959 	    3.2960 	    7.0000 	   57.0000 	    9.6712 
    0.4196 	    3.3095 	    7.0000 	   57.0000 	    9.6982 
    0.4196 	    3.3230 	    7.0000 	   57.0000 	    9.7252 
    0.6638 	    3.3375 	    7.0000 	   57.0000 	    9.7542 
    0.5570 	    3.3510 	    7.0000 	   57.0000 	    9.7812 
    0.4196 	    3.3640 	    7.0000 	   57.0000 	    9.8072 
    0.4501 	    3.3795 	    7.0000 	   57.0000 	    9.8382 
    0.2823 	    3.3920 	    7.0000 	   57.0000 	    9.8632 
    0.4196 	    3.4055 	    7.0000 	   57.0000 	    9.8902 
    0.4044 	    3.4210 	    7.0000 	   57.0000 	    9.9212 
    0.3433 	    3.4380 	    7.0000 	   57.0000 	    9.9552 
    0.6638 	    3.4530 	    7.0000 	   57.0000 	    9.9852 
    0.6332 	    3.4700 	    7.0000 	   57.0000 	   10.0182 
    0.5417 	    3.4870 	    7.0000 	   57.0000 	   10.0522 
    0.5417 	    3.5025 	    7.0000 	   57.0000 	   10.0832 
    0.4807 	    3.5175 	    7.0000 	   57.0000 	   10.1132 
    0.4654 	    3.5355 	    7.0000 	   57.0000 	   10.1493 
    0.4349 	    3.5505 	    7.0000 	   57.0000 	   10.1793 
    0.5570 	    3.5655 	    7.0000 	   57.0000 	   10.2093 
    0.4807 	    3.5825 	    7.0000 	   57.0000 	   10.2433 
    0.5417 	    3.5975 	    7.0000 	   57.0000 	   10.2733 
    0.5112 	    3.6130 	    7.0000 	   57.0000 	   10.3043 
    0.4959 	    3.6285 	    7.0000 	   57.0000 	   10.3353 
    0.6790 	    3.6460 	    7.0000 	   57.0000 	   10.3703 
    0.4959 	    3.6615 	    7.0000 	   57.0000 	   10.4013 
    0.6180 	    3.6780 	    7.0000 	   57.0000 	   10.4343 
    0.4349 	    3.6955 	    7.0000 	   57.0000 	   10.4693 
    0.5112 	    3.7110 	    7.0000 	   57.0000 	   10.5003 
    0.5722 	    3.7270 	    7.0000 	   57.0000 	   10.5323 
    0.5264 	    3.7435 	    7.0000 	   57.0000 	   10.5653 
    0.5112 	    3.7590 	    7.0000 	   57.0000 	   10.5963 
    0.6027 	    3.7730 	    7.0000 	   57.0000 	   10.6243 
    0.4654 	    3.7885 	    7.0000 	   57.0000 	   10.6553 
    0.4501 	    3.8025 	    7.0000 	   57.0000 	   10.6833 
    0.5264 	    3.8165 	    7.0000 	   57.0000 	   10.7113 
    0.3586 	    3.8320 	    7.0000 	   57.0000 	   10.7423 
    0.4196 	    3.8450 	    7.0000 	   57.0000 	   10.7683 
    0.7095 	    3.8590 	    7.0000 	   57.0000 	   10.7963 
    0.4501 	    3.8715 	    7.0000 	   57.0000 	   10.8213 
    0.4654 	    3.9000 	    7.0000 	   57.0000 	   10.8783 
    0.4044 	    3.9125 	    7.0000 	   57.0000 	   10.9033 
    0.4196 	    3.9280 	    7.0000 	   57.0000 	   10.9343 
    0.4959 	    3.9425 	    7.0000 	   57.0000 	   10.9633 
    0.4959 	    3.9575 	    7.0000 	   57.0000 	   10.9933 
    0.5722 	    3.9725 	    7.0000 	   57.0000 	   11.0233 
    0.4807 	    3.9870 	    7.0000 	   57.0000 	   11.0523 
    0.5417 	    4.0010 	    7.0000 	   57.0000 	   11.0803 
    0.4959 	    4.0140 	    7.0000 	   57.0000 	   11.1063 
    0.5570 	    4.0290 	    7.0000 	   57.0000 	   11.1363 
    0.4501 	    4.0440 	    7.0000 	   57.0000 	   11.1663 
    0.4196 	    4.0600 	    7.0000 	   57.0000 	   11.1983 
    0.4501 	    4.0745 	    7.0000 	   57.0000 	   11.2273 
    0.4349 	    4.0890 	    7.0000 	   57.0000 	   11.2563 
    0.5417 	    4.1050 	    7.0000 	   57.0000 	   11.2883 
    0.5417 	    4.1200 	    7.0000 	   57.0000 	   11.3183 
    0.5722 	    4.1360 	    7.0000 	   57.0000 	   11.3503 
    0.4959 	    4.1520 	    7.0000 	   57.0000 	   11.3823 
    0.5264 	    4.1670 	    7.0000 	   57.0000 	   11.4123 
    0.5264 	    4.1825 	    7.0000 	   57.0000 	   11.4433 
    0.4654 	    4.1965 	    7.0000 	   57.0000 	   11.4713 
    0.4807 	    4.2120 	    7.0000 	   57.0000 	   11.5023 
    0.5264 	    4.2275 	    7.0000 	   57.0000 	   11.5333 
    0.4959 	    4.2445 	    7.0000 	   57.0000 	   11.5673 
    0.4654 	    4.2600 	    7.0000 	   57.0000 	   11.5983 
    0.3891 	    4.2740 	    7.0000 	   57.0000 	   11.6263 
    0.5570 	    4.2880 	    7.0000 	   57.0000 	   11.6543 
    0.5875 	    4.3020 	    7.0000 	   57.0000 	   11.6823 
    0.2060 	    4.3165 	    7.0000 	   57.0000 	   11.7113 
    0.4959 	    4.3315 	    7.0000 	   57.0000 	   11.7413 
    0.5417 	    4.3445 	    7.0000 	   57.0000 	   11.7673 
    0.3281 	    4.3585 	    7.0000 	   57.0000 	   11.7953 
    0.2518 	    4.3720 	    7.0000 	   57.0000 	   11.8223 
    0.4654 	    4.3845 	    7.0000 	   57.0000 	   11.8473 
    0.5722 	    4.3980 	    7.0000 	   57.0000 	   11.8744 
    0.4501 	    4.4110 	    7.0000 	   57.0000 	   11.9004 
    0.5570 	    4.4245 	    7.0000 	   57.0000 	   11.9274 
    0.5112 	    4.4400 	    7.0000 	   57.0000 	   11.9584 
    0.4654 	    4.4550 	    7.0000 	   57.0000 	   11.9884 
    0.6180 	    4.4705 	    7.0000 	   57.0000 	   12.0194 
    0.4807 	    4.4865 	    7.0000 	   57.0000 	   12.0514 
    0.6638 	    4.5015 	    7.0000 	   57.0000 	   12.0814 
    0.4959 	    4.5155 	    7.0000 	   57.0000 	   12.1094 
    0.5875 	    4.5305 	    7.0000 	   57.0000 	   12.1394 
    0.5417 	    4.5450 	    7.0000 	   57.0000 	   12.1684 
    0.5417 	    4.5595 	    7.0000 	   57.0000 	   12.1974 
    0.7401 	    4.5755 	    7.0000 	   57.0000 	   12.2294 
    0.2976 	    4.5900 	    7.0000 	   57.0000 	   12.2584 
    0.6027 	    4.6055 	    7.0000 	   57.0000 	   12.2894 
    0.6332 	    4.6210 	    7.0000 	   57.0000 	   12.3204 
    0.4959 	    4.6380 	    7.0000 	   57.0000 	   12.3544 
    0.4349 	    4.6540 	    7.0000 	   57.0000 	   12.3864 
    0.4807 	    4.6705 	    7.0000 	   57.0000 	   12.4194 
    0.6027 	    4.6870 	    7.0000 	   57.0000 	   12.4524 
    0.4044 	    4.7030 	    7.0000 	   57.0000 	   12.4844 
    0.5875 	    4.7190 	    7.0000 	   57.0000 	   12.5164 
    0.4501 	    4.7355 	    7.0000 	   57.0000 	   12.5494 
    0.4807 	    4.7510 	    7.0000 	   57.0000 	   12.5804 
    0.1450 	    4.7665 	    7.0000 	   57.0000 	   12.6114 
    0.6180 	    4.7830 	    7.0000 	   57.0000 	   12.6444 
    0.4959 	    4.7970 	    7.0000 	   57.0000 	   12.6724 
    0.5570 	    4.8115 	    7.0000 	   57.0000 	   12.7014 
    0.5875 	    4.8255 	    7.0000 	   57.0000 	   12.7294 
    0.4501 	    4.8410 	    7.0000 	   57.0000 	   12.7604 
    0.4349 	    4.8545 	    7.0000 	   57.0000 	   12.7874 
    0.4959 	    4.8675 	    7.0000 	   57.0000 	   12.8134 
    0.5417 	    4.8805 	    7.0000 	   57.0000 	   12.8394 
    0.4959 	    4.8935 	    7.0000 	   57.0000 	   12.8654 
    0.5264 	    4.9070 	    7.0000 	   57.0000 	   12.8924 
    0.4959 	    4.9195 	    7.0000 	   57.0000 	   12.9174 
    0.6180 	    4.9345 	    7.0000 	   57.0000 	   12.9474 
    0.5264 	    4.9485 	    7.0000 	   57.0000 	   12.9754 
    0.6027 	    4.9630 	    7.0000 	   57.0000 	   13.0044 
    0.4959 	    4.9790 	    7.0000 	   57.0000 	   13.0364 
    0.5722 	    4.9950 	    7.0000 	   57.0000 	   13.0684 
    0.5264 	    5.0115 	    7.0000 	   57.0000 	   13.1014 
    0.4959 	    5.0275 	    7.0000 	   57.0000 	   13.1334 
    0.5264 	    5.0455 	    7.0000 	   57.0000 	   13.1694 
    0.4501 	    5.0615 	    7.0000 	   57.0000 	   13.2014 
    0.3433 	    5.0770 	    7.0000 	   57.0000 	   13.2324 
    0.7858 	    5.0925 	    7.0000 	   57.0000 	   13.2634 
    0.3891 	    5.1075 	    7.0000 	   57.0000 	   13.2934 
    0.4654 	    5.1230 	    7.0000 	   57.0000 	   13.3244 
    0.5417 	    5.1405 	    7.0000 	   57.0000 	   13.3594 
    0.6332 	    5.1560 	    7.0000 	   57.0000 	   13.3904 
    0.4501 	    5.1710 	    7.0000 	   57.0000 	   13.4204 
    0.6180 	    5.1870 	    7.0000 	   57.0000 	   13.4524 
    0.5264 	    5.2040 	    7.0000 	   57.0000 	   13.4864 
    0.3891 	    5.2200 	    7.0000 	   57.0000 	   13.5184 
    0.6485 	    5.2370 	    7.0000 	   57.0000 	   13.5524 
    0.4959 	    5.2535 	    7.0000 	   57.0000 	   13.5854 
    0.4501 	    5.2700 	    7.0000 	   57.0000 	   13.6185 
    0.5264 	    5.2855 	    7.0000 	   57.0000 	   13.6495 
    0.6638 	    5.2995 	    7.0000 	   57.0000 	   13.6775 
    0.3433 	    5.3135 	    7.0000 	   57.0000 	   13.7055 
    0.6638 	    5.3270 	    7.0000 	   57.0000 	   13.7325 
    0.5722 	    5.3425 	    7.0000 	   57.0000 	   13.7635 
    0.5570 	    5.3570 	    7.0000 	   57.0000 	   13.7925 
    0.4654 	    5.3705 	    7.0000 	   57.0000 	   13.8195 
    0.6638 	    5.3840 	    7.0000 	   57.0000 	   13.8465 
    0.4959 	    5.3970 	    7.0000 	   57.0000 	   13.8725 
    0.5875 	    5.4105 	    7.0000 	   57.0000 	   13.8995 
    0.6180 	    5.4245 	    7.0000 	   57.0000 	   13.9275 
    0.5112 	    5.4415 	    7.0000 	   57.0000 	   13.9615 
    0.7095 	    5.4565 	    7.0000 	   57.0000 	   13.9915 
    0.6485 	    5.4725 	    7.0000 	   57.0000 	   14.0235 
    0.5112 	    5.4880 	    7.0000 	   57.0000 	   14.0545 
    0.5875 	    5.5045 	    7.0000 	   57.0000 	   14.0875 
    0.4654 	    5.5200 	    7.0000 	   57.0000 	   14.1185 
    0.6180 	    5.5380 	    7.0000 	   57.0000 	   14.1545 
    0.6027 	    5.5540 	    7.0000 	   57.0000 	   14.1865 
    0.6332 	    5.5695 	    7.0000 	   57.0000 	   14.2175 
    0.4349 	    5.5850 	    7.0000 	   57.0000 	   14.2485 
    0.6332 	    5.6005 	    7.0000 	   57.0000 	   14.2795 
    0.4807 	    5.6150 	    7.0000 	   57.0000 	   14.3085 
    0.4807 	    5.6315 	    7.0000 	   57.0000 	   14.3415 
    0.5875 	    5.6450 	    7.0000 	   57.0000 	   14.3685 
    0.5417 	    5.6600 	    7.0000 	   57.0000 	   14.3985 
    0.5264 	    5.6755 	    7.0000 	   57.0000 	   14.4295 
    0.6332 	    5.6910 	    7.0000 	   57.0000 	   14.4605 
    0.4959 	    5.7065 	    7.0000 	   57.0000 	   14.4915 
    0.6027 	    5.7215 	    7.0000 	   57.0000 	   14.5215 
    0.4349 	    5.7380 	    7.0000 	   57.0000 	   14.5545 
    0.5722 	    5.7515 	    7.0000 	   57.0000 	   14.5815 
    0.2976 	    5.7660 	    7.0000 	   57.0000 	   14.6105 
    0.4807 	    5.7810 	    7.0000 	   57.0000 	   14.6405 
    0.6638 	    5.7950 	    7.0000 	   57.0000 	   14.6685 
    0.4959 	    5.8095 	    7.0000 	   57.0000 	   14.6975 
    0.4349 	    5.8235 	    7.0000 	   57.0000 	   14.7255 
