Thayer School of Engineering        Instron 4442 Mechanical Testing System
7/5/2018 11:31:43 PM

  Force (N)	Extension (mm)	Not Used	Not Used	Not Used	     Hour	    Minute	    Second
    0.4654 	    0.5140 	   23.0000 	   31.0000 	   56.6347 
    0.4807 	    0.5285 	   23.0000 	   31.0000 	   56.6637 
    0.3586 	    0.5595 	   23.0000 	   31.0000 	   56.7257 
    0.6943 	    0.5770 	   23.0000 	   31.0000 	   56.7607 
    0.5417 	    0.6060 	   23.0000 	   31.0000 	   56.8187 
    0.4807 	    0.6335 	   23.0000 	   31.0000 	   56.8737 
    0.4959 	    0.6600 	   23.0000 	   31.0000 	   56.9267 
    0.4654 	    0.6765 	   23.0000 	   31.0000 	   56.9597 
    0.5417 	    0.6930 	   23.0000 	   31.0000 	   56.9927 
    0.5264 	    0.7095 	   23.0000 	   31.0000 	   57.0257 
    0.6943 	    0.7255 	   23.0000 	   31.0000 	   57.0577 
    0.4959 	    0.7415 	   23.0000 	   31.0000 	   57.0897 
    0.5570 	    0.7705 	   23.0000 	   31.0000 	   57.1477 
    0.5570 	    0.7990 	   23.0000 	   31.0000 	   57.2047 
    0.4501 	    0.8245 	   23.0000 	   31.0000 	   57.2557 
    0.6332 	    0.8390 	   23.0000 	   31.0000 	   57.2847 
    0.5570 	    0.8665 	   23.0000 	   31.0000 	   57.3397 
    0.5264 	    0.8940 	   23.0000 	   31.0000 	   57.3947 
    0.6485 	    0.9095 	   23.0000 	   31.0000 	   57.4257 
    0.4349 	    0.9390 	   23.0000 	   31.0000 	   57.4847 
    0.4807 	    0.9665 	   23.0000 	   31.0000 	   57.5397 
    0.5417 	    0.9920 	   23.0000 	   31.0000 	   57.5907 
    0.2976 	    1.0175 	   23.0000 	   31.0000 	   57.6417 
    0.4959 	    1.0330 	   23.0000 	   31.0000 	   57.6727 
    0.5722 	    1.0600 	   23.0000 	   31.0000 	   57.7267 
    0.4959 	    1.0875 	   23.0000 	   31.0000 	   57.7817 
    0.5722 	    1.1130 	   23.0000 	   31.0000 	   57.8327 
    0.4959 	    1.1380 	   23.0000 	   31.0000 	   57.8827 
    0.5112 	    1.1655 	   23.0000 	   31.0000 	   57.9377 
    0.5417 	    1.1915 	   23.0000 	   31.0000 	   57.9897 
    0.4959 	    1.2075 	   23.0000 	   31.0000 	   58.0217 
    0.5570 	    1.2235 	   23.0000 	   31.0000 	   58.0537 
    0.5722 	    1.2390 	   23.0000 	   31.0000 	   58.0848 
    0.5570 	    1.2675 	   23.0000 	   31.0000 	   58.1418 
    0.6790 	    1.2830 	   23.0000 	   31.0000 	   58.1728 
    0.5112 	    1.2985 	   23.0000 	   31.0000 	   58.2038 
    0.3128 	    1.3275 	   23.0000 	   31.0000 	   58.2618 
    0.4959 	    1.3530 	   23.0000 	   31.0000 	   58.3128 
    0.6027 	    1.3780 	   23.0000 	   31.0000 	   58.3628 
    0.5264 	    1.4030 	   23.0000 	   31.0000 	   58.4128 
    0.6485 	    1.4270 	   23.0000 	   31.0000 	   58.4608 
    0.4959 	    1.4515 	   23.0000 	   31.0000 	   58.5098 
    0.5417 	    1.4765 	   23.0000 	   31.0000 	   58.5598 
    0.4807 	    1.5015 	   23.0000 	   31.0000 	   58.6098 
    0.4501 	    1.5165 	   23.0000 	   31.0000 	   58.6398 
    0.5264 	    1.5320 	   23.0000 	   31.0000 	   58.6708 
    0.5875 	    1.5610 	   23.0000 	   31.0000 	   58.7288 
    0.5112 	    1.5865 	   23.0000 	   31.0000 	   58.7798 
    0.6027 	    1.6025 	   23.0000 	   31.0000 	   58.8118 
    0.6332 	    1.6205 	   23.0000 	   31.0000 	   58.8478 
    0.6332 	    1.6490 	   23.0000 	   31.0000 	   58.9048 
    0.4807 	    1.6655 	   23.0000 	   31.0000 	   58.9378 
    0.4959 	    1.6825 	   23.0000 	   31.0000 	   58.9718 
    0.3738 	    1.6990 	   23.0000 	   31.0000 	   59.0048 
    0.5112 	    1.7155 	   23.0000 	   31.0000 	   59.0378 
    0.6027 	    1.7435 	   23.0000 	   31.0000 	   59.0938 
    0.5722 	    1.7600 	   23.0000 	   31.0000 	   59.1268 
    0.6180 	    1.7760 	   23.0000 	   31.0000 	   59.1588 
    0.6485 	    1.7925 	   23.0000 	   31.0000 	   59.1918 
    0.6485 	    1.8080 	   23.0000 	   31.0000 	   59.2228 
    0.6180 	    1.8240 	   23.0000 	   31.0000 	   59.2548 
    0.3738 	    1.8395 	   23.0000 	   31.0000 	   59.2858 
    0.6332 	    1.8535 	   23.0000 	   31.0000 	   59.3138 
    0.4959 	    1.8680 	   23.0000 	   31.0000 	   59.3428 
    0.5417 	    1.8840 	   23.0000 	   31.0000 	   59.3748 
    0.5417 	    1.9005 	   23.0000 	   31.0000 	   59.4078 
    0.4501 	    1.9175 	   23.0000 	   31.0000 	   59.4418 
    0.5722 	    1.9340 	   23.0000 	   31.0000 	   59.4748 
    0.5570 	    1.9505 	   23.0000 	   31.0000 	   59.5078 
    0.5112 	    1.9680 	   23.0000 	   31.0000 	   59.5428 
    0.4654 	    1.9845 	   23.0000 	   31.0000 	   59.5758 
    0.4959 	    2.0005 	   23.0000 	   31.0000 	   59.6078 
    0.4501 	    2.0170 	   23.0000 	   31.0000 	   59.6408 
    0.6180 	    2.0330 	   23.0000 	   31.0000 	   59.6728 
    0.4044 	    2.0485 	   23.0000 	   31.0000 	   59.7038 
    0.5417 	    2.0650 	   23.0000 	   31.0000 	   59.7368 
    0.5722 	    2.0820 	   23.0000 	   31.0000 	   59.7708 
    0.6027 	    2.0985 	   23.0000 	   31.0000 	   59.8038 
    0.6180 	    2.1160 	   23.0000 	   31.0000 	   59.8389 
    0.6485 	    2.1315 	   23.0000 	   31.0000 	   59.8699 
    0.5722 	    2.1485 	   23.0000 	   31.0000 	   59.9039 
    0.5112 	    2.1655 	   23.0000 	   31.0000 	   59.9379 
    0.5264 	    2.1820 	   23.0000 	   31.0000 	   59.9709 
    0.6180 	    2.1980 	   23.0000 	   32.0000 	    0.0029 
    0.3891 	    2.2135 	   23.0000 	   32.0000 	    0.0339 
    0.5264 	    2.2275 	   23.0000 	   32.0000 	    0.0619 
    0.5570 	    2.2445 	   23.0000 	   32.0000 	    0.0959 
    0.5264 	    2.2610 	   23.0000 	   32.0000 	    0.1289 
    0.5570 	    2.2775 	   23.0000 	   32.0000 	    0.1619 
    0.5570 	    2.2940 	   23.0000 	   32.0000 	    0.1949 
    0.5264 	    2.3085 	   23.0000 	   32.0000 	    0.2239 
    0.6485 	    2.3245 	   23.0000 	   32.0000 	    0.2559 
    0.6485 	    2.3405 	   23.0000 	   32.0000 	    0.2879 
    0.7095 	    2.3590 	   23.0000 	   32.0000 	    0.3249 
    0.5417 	    2.3765 	   23.0000 	   32.0000 	    0.3599 
    0.5417 	    2.3930 	   23.0000 	   32.0000 	    0.3929 
    0.6027 	    2.4090 	   23.0000 	   32.0000 	    0.4249 
    0.4807 	    2.4240 	   23.0000 	   32.0000 	    0.4549 
    0.4807 	    2.4410 	   23.0000 	   32.0000 	    0.4889 
    0.6638 	    2.4575 	   23.0000 	   32.0000 	    0.5219 
    0.3891 	    2.4755 	   23.0000 	   32.0000 	    0.5579 
    0.5570 	    2.4925 	   23.0000 	   32.0000 	    0.5919 
    0.6027 	    2.5100 	   23.0000 	   32.0000 	    0.6269 
    0.6027 	    2.5255 	   23.0000 	   32.0000 	    0.6579 
    0.5112 	    2.5410 	   23.0000 	   32.0000 	    0.6889 
    0.5417 	    2.5580 	   23.0000 	   32.0000 	    0.7229 
    0.6485 	    2.5735 	   23.0000 	   32.0000 	    0.7539 
    0.4959 	    2.5905 	   23.0000 	   32.0000 	    0.7879 
    0.6180 	    2.6060 	   23.0000 	   32.0000 	    0.8189 
    0.5112 	    2.6220 	   23.0000 	   32.0000 	    0.8509 
    0.5722 	    2.6385 	   23.0000 	   32.0000 	    0.8839 
    0.6332 	    2.6525 	   23.0000 	   32.0000 	    0.9119 
    0.5722 	    2.6685 	   23.0000 	   32.0000 	    0.9439 
    0.5417 	    2.6865 	   23.0000 	   32.0000 	    0.9799 
    0.5570 	    2.7020 	   23.0000 	   32.0000 	    1.0109 
    0.6332 	    2.7180 	   23.0000 	   32.0000 	    1.0429 
    0.5570 	    2.7335 	   23.0000 	   32.0000 	    1.0739 
    0.4196 	    2.7490 	   23.0000 	   32.0000 	    1.1049 
    0.6485 	    2.7645 	   23.0000 	   32.0000 	    1.1359 
    0.6485 	    2.7785 	   23.0000 	   32.0000 	    1.1639 
    0.5875 	    2.7940 	   23.0000 	   32.0000 	    1.1949 
    0.6485 	    2.8090 	   23.0000 	   32.0000 	    1.2249 
    0.5112 	    2.8240 	   23.0000 	   32.0000 	    1.2549 
    0.5417 	    2.8400 	   23.0000 	   32.0000 	    1.2869 
    0.6180 	    2.8560 	   23.0000 	   32.0000 	    1.3189 
    0.5875 	    2.8715 	   23.0000 	   32.0000 	    1.3499 
    0.6638 	    2.8875 	   23.0000 	   32.0000 	    1.3819 
    0.6638 	    2.9030 	   23.0000 	   32.0000 	    1.4129 
    0.6027 	    2.9185 	   23.0000 	   32.0000 	    1.4439 
    0.6180 	    2.9350 	   23.0000 	   32.0000 	    1.4769 
    0.5264 	    2.9500 	   23.0000 	   32.0000 	    1.5069 
    0.6485 	    2.9650 	   23.0000 	   32.0000 	    1.5369 
    0.6638 	    2.9815 	   23.0000 	   32.0000 	    1.5700 
    0.6027 	    2.9960 	   23.0000 	   32.0000 	    1.5990 
    0.7248 	    3.0110 	   23.0000 	   32.0000 	    1.6290 
    0.6027 	    3.0265 	   23.0000 	   32.0000 	    1.6600 
    0.5875 	    3.0430 	   23.0000 	   32.0000 	    1.6930 
    0.5875 	    3.0580 	   23.0000 	   32.0000 	    1.7230 
    0.6943 	    3.0735 	   23.0000 	   32.0000 	    1.7540 
    0.5112 	    3.0905 	   23.0000 	   32.0000 	    1.7880 
    0.6180 	    3.1055 	   23.0000 	   32.0000 	    1.8180 
    0.4654 	    3.1195 	   23.0000 	   32.0000 	    1.8460 
    0.6027 	    3.1365 	   23.0000 	   32.0000 	    1.8800 
    0.5722 	    3.1520 	   23.0000 	   32.0000 	    1.9110 
    0.5875 	    3.1670 	   23.0000 	   32.0000 	    1.9410 
    0.5722 	    3.1840 	   23.0000 	   32.0000 	    1.9750 
    0.5722 	    3.1990 	   23.0000 	   32.0000 	    2.0050 
    0.5112 	    3.2145 	   23.0000 	   32.0000 	    2.0360 
    0.4349 	    3.2305 	   23.0000 	   32.0000 	    2.0680 
    0.3738 	    3.2470 	   23.0000 	   32.0000 	    2.1010 
    0.6027 	    3.2615 	   23.0000 	   32.0000 	    2.1300 
    0.5875 	    3.2765 	   23.0000 	   32.0000 	    2.1600 
    0.7553 	    3.2940 	   23.0000 	   32.0000 	    2.1950 
    0.7095 	    3.3090 	   23.0000 	   32.0000 	    2.2250 
    0.6790 	    3.3250 	   23.0000 	   32.0000 	    2.2570 
    0.5570 	    3.3425 	   23.0000 	   32.0000 	    2.2920 
    0.6332 	    3.3580 	   23.0000 	   32.0000 	    2.3230 
    0.6332 	    3.3730 	   23.0000 	   32.0000 	    2.3530 
    0.7095 	    3.3895 	   23.0000 	   32.0000 	    2.3860 
    0.5112 	    3.4045 	   23.0000 	   32.0000 	    2.4160 
    0.6027 	    3.4185 	   23.0000 	   32.0000 	    2.4440 
    0.7706 	    3.4355 	   23.0000 	   32.0000 	    2.4780 
    0.7401 	    3.4520 	   23.0000 	   32.0000 	    2.5110 
    0.5112 	    3.4660 	   23.0000 	   32.0000 	    2.5390 
    0.4807 	    3.4830 	   23.0000 	   32.0000 	    2.5730 
    0.7401 	    3.4980 	   23.0000 	   32.0000 	    2.6030 
    0.5875 	    3.5135 	   23.0000 	   32.0000 	    2.6340 
    0.4501 	    3.5280 	   23.0000 	   32.0000 	    2.6630 
    0.5875 	    3.5450 	   23.0000 	   32.0000 	    2.6970 
    0.7248 	    3.5610 	   23.0000 	   32.0000 	    2.7290 
    0.5264 	    3.5765 	   23.0000 	   32.0000 	    2.7600 
    0.4349 	    3.5925 	   23.0000 	   32.0000 	    2.7920 
    0.5875 	    3.6075 	   23.0000 	   32.0000 	    2.8220 
    0.6180 	    3.6235 	   23.0000 	   32.0000 	    2.8540 
    0.4349 	    3.6405 	   23.0000 	   32.0000 	    2.8880 
    0.7553 	    3.6565 	   23.0000 	   32.0000 	    2.9200 
    0.6943 	    3.6715 	   23.0000 	   32.0000 	    2.9500 
    0.6332 	    3.6885 	   23.0000 	   32.0000 	    2.9840 
    0.4501 	    3.7030 	   23.0000 	   32.0000 	    3.0130 
    0.6027 	    3.7185 	   23.0000 	   32.0000 	    3.0440 
    0.6332 	    3.7350 	   23.0000 	   32.0000 	    3.0770 
    0.6943 	    3.7505 	   23.0000 	   32.0000 	    3.1080 
    0.8164 	    3.7655 	   23.0000 	   32.0000 	    3.1380 
    0.6332 	    3.7835 	   23.0000 	   32.0000 	    3.1740 
    0.2365 	    3.7990 	   23.0000 	   32.0000 	    3.2050 
    0.5570 	    3.8145 	   23.0000 	   32.0000 	    3.2360 
    0.5417 	    3.8310 	   23.0000 	   32.0000 	    3.2690 
    0.6943 	    3.8480 	   23.0000 	   32.0000 	    3.3030 
    0.7095 	    3.8640 	   23.0000 	   32.0000 	    3.3351 
    0.6027 	    3.8795 	   23.0000 	   32.0000 	    3.3661 
    0.5875 	    3.8950 	   23.0000 	   32.0000 	    3.3971 
    0.6790 	    3.9110 	   23.0000 	   32.0000 	    3.4291 
    0.6638 	    3.9265 	   23.0000 	   32.0000 	    3.4601 
    0.5417 	    3.9435 	   23.0000 	   32.0000 	    3.4941 
    0.2976 	    3.9580 	   23.0000 	   32.0000 	    3.5231 
    0.5875 	    3.9735 	   23.0000 	   32.0000 	    3.5541 
    0.5112 	    3.9890 	   23.0000 	   32.0000 	    3.5851 
    0.4807 	    4.0030 	   23.0000 	   32.0000 	    3.6131 
    0.5875 	    4.0255 	   23.0000 	   32.0000 	    3.6581 
    0.5570 	    4.0410 	   23.0000 	   32.0000 	    3.6891 
    0.6485 	    4.0565 	   23.0000 	   32.0000 	    3.7201 
    0.4654 	    4.0720 	   23.0000 	   32.0000 	    3.7511 
    0.7858 	    4.0870 	   23.0000 	   32.0000 	    3.7811 
    0.6027 	    4.1015 	   23.0000 	   32.0000 	    3.8101 
    0.5570 	    4.1170 	   23.0000 	   32.0000 	    3.8411 
    0.6638 	    4.1330 	   23.0000 	   32.0000 	    3.8731 
    0.5875 	    4.1485 	   23.0000 	   32.0000 	    3.9041 
    0.5112 	    4.1635 	   23.0000 	   32.0000 	    3.9341 
    0.6180 	    4.1785 	   23.0000 	   32.0000 	    3.9641 
    0.6790 	    4.1935 	   23.0000 	   32.0000 	    3.9941 
    0.6943 	    4.2100 	   23.0000 	   32.0000 	    4.0271 
    0.5722 	    4.2240 	   23.0000 	   32.0000 	    4.0551 
    0.6638 	    4.2415 	   23.0000 	   32.0000 	    4.0901 
    0.5570 	    4.2570 	   23.0000 	   32.0000 	    4.1211 
    0.6180 	    4.2730 	   23.0000 	   32.0000 	    4.1531 
    0.5722 	    4.2880 	   23.0000 	   32.0000 	    4.1831 
    0.6180 	    4.3045 	   23.0000 	   32.0000 	    4.2161 
    0.6943 	    4.3200 	   23.0000 	   32.0000 	    4.2471 
    0.2670 	    4.3370 	   23.0000 	   32.0000 	    4.2811 
    0.6638 	    4.3520 	   23.0000 	   32.0000 	    4.3111 
    0.6790 	    4.3660 	   23.0000 	   32.0000 	    4.3391 
    0.6485 	    4.3805 	   23.0000 	   32.0000 	    4.3681 
    0.5264 	    4.3960 	   23.0000 	   32.0000 	    4.3991 
    0.4196 	    4.4110 	   23.0000 	   32.0000 	    4.4291 
    0.6943 	    4.4260 	   23.0000 	   32.0000 	    4.4591 
    0.6790 	    4.4435 	   23.0000 	   32.0000 	    4.4941 
    0.6027 	    4.4595 	   23.0000 	   32.0000 	    4.5261 
    0.6790 	    4.4745 	   23.0000 	   32.0000 	    4.5561 
    0.5722 	    4.4910 	   23.0000 	   32.0000 	    4.5891 
    0.5875 	    4.5070 	   23.0000 	   32.0000 	    4.6211 
    0.5722 	    4.5230 	   23.0000 	   32.0000 	    4.6531 
    0.6180 	    4.5405 	   23.0000 	   32.0000 	    4.6881 
    0.5722 	    4.5560 	   23.0000 	   32.0000 	    4.7191 
    0.7706 	    4.5710 	   23.0000 	   32.0000 	    4.7491 
    0.7553 	    4.5865 	   23.0000 	   32.0000 	    4.7801 
    0.5570 	    4.6025 	   23.0000 	   32.0000 	    4.8121 
    0.8469 	    4.6180 	   23.0000 	   32.0000 	    4.8431 
    0.6638 	    4.6360 	   23.0000 	   32.0000 	    4.8791 
    0.5722 	    4.6515 	   23.0000 	   32.0000 	    4.9101 
    0.6790 	    4.6670 	   23.0000 	   32.0000 	    4.9411 
    0.6027 	    4.6815 	   23.0000 	   32.0000 	    4.9701 
    0.6332 	    4.6980 	   23.0000 	   32.0000 	    5.0031 
    0.6485 	    4.7140 	   23.0000 	   32.0000 	    5.0351 
    0.5264 	    4.7295 	   23.0000 	   32.0000 	    5.0662 
    0.7401 	    4.7465 	   23.0000 	   32.0000 	    5.1002 
    0.5875 	    4.7620 	   23.0000 	   32.0000 	    5.1312 
    0.6027 	    4.7775 	   23.0000 	   32.0000 	    5.1622 
    0.6180 	    4.7935 	   23.0000 	   32.0000 	    5.1942 
    0.6485 	    4.8095 	   23.0000 	   32.0000 	    5.2262 
    0.5112 	    4.8250 	   23.0000 	   32.0000 	    5.2572 
    0.4959 	    4.8420 	   23.0000 	   32.0000 	    5.2912 
    0.5264 	    4.8570 	   23.0000 	   32.0000 	    5.3212 
    0.5722 	    4.8720 	   23.0000 	   32.0000 	    5.3512 
    0.7095 	    4.8870 	   23.0000 	   32.0000 	    5.3812 
    0.5722 	    4.9035 	   23.0000 	   32.0000 	    5.4142 
    0.7706 	    4.9185 	   23.0000 	   32.0000 	    5.4442 
    0.6027 	    4.9365 	   23.0000 	   32.0000 	    5.4802 
    0.7095 	    4.9520 	   23.0000 	   32.0000 	    5.5112 
    0.7248 	    4.9680 	   23.0000 	   32.0000 	    5.5432 
    0.7401 	    4.9835 	   23.0000 	   32.0000 	    5.5742 
    0.6790 	    4.9995 	   23.0000 	   32.0000 	    5.6062 
    0.5875 	    5.0155 	   23.0000 	   32.0000 	    5.6382 
    0.5570 	    5.0305 	   23.0000 	   32.0000 	    5.6682 
    0.6790 	    5.0480 	   23.0000 	   32.0000 	    5.7032 
    0.6790 	    5.0640 	   23.0000 	   32.0000 	    5.7352 
    0.6943 	    5.0800 	   23.0000 	   32.0000 	    5.7672 
    0.7553 	    5.0960 	   23.0000 	   32.0000 	    5.7992 
    0.7095 	    5.1115 	   23.0000 	   32.0000 	    5.8302 
    0.7401 	    5.1275 	   23.0000 	   32.0000 	    5.8622 
    0.6180 	    5.1440 	   23.0000 	   32.0000 	    5.8952 
    0.6180 	    5.1595 	   23.0000 	   32.0000 	    5.9262 
    0.7401 	    5.1755 	   23.0000 	   32.0000 	    5.9582 
    0.7706 	    5.1910 	   23.0000 	   32.0000 	    5.9892 
    0.6027 	    5.2065 	   23.0000 	   32.0000 	    6.0202 
    0.6180 	    5.2215 	   23.0000 	   32.0000 	    6.0502 
    0.7095 	    5.2390 	   23.0000 	   32.0000 	    6.0852 
    0.8164 	    5.2550 	   23.0000 	   32.0000 	    6.1172 
    0.4196 	    5.2700 	   23.0000 	   32.0000 	    6.1472 
    0.5875 	    5.2845 	   23.0000 	   32.0000 	    6.1762 
    0.6180 	    5.3000 	   23.0000 	   32.0000 	    6.2072 
    0.7248 	    5.3160 	   23.0000 	   32.0000 	    6.2392 
    0.6180 	    5.3330 	   23.0000 	   32.0000 	    6.2732 
    0.6790 	    5.3490 	   23.0000 	   32.0000 	    6.3052 
    0.3586 	    5.3650 	   23.0000 	   32.0000 	    6.3372 
    0.5417 	    5.3820 	   23.0000 	   32.0000 	    6.3712 
    0.6638 	    5.3980 	   23.0000 	   32.0000 	    6.4032 
    0.7095 	    5.4145 	   23.0000 	   32.0000 	    6.4362 
    0.6332 	    5.4305 	   23.0000 	   32.0000 	    6.4682 
    0.6027 	    5.4480 	   23.0000 	   32.0000 	    6.5032 
    0.5875 	    5.4640 	   23.0000 	   32.0000 	    6.5352 
    0.5722 	    5.4805 	   23.0000 	   32.0000 	    6.5682 
    0.5570 	    5.4955 	   23.0000 	   32.0000 	    6.5982 
    0.8011 	    5.5120 	   23.0000 	   32.0000 	    6.6302 
    0.7706 	    5.5275 	   23.0000 	   32.0000 	    6.6612 
    0.5722 	    5.5445 	   23.0000 	   32.0000 	    6.6952 
    0.5875 	    5.5605 	   23.0000 	   32.0000 	    6.7272 
    0.7248 	    5.5755 	   23.0000 	   32.0000 	    6.7572 
    0.4349 	    5.5915 	   23.0000 	   32.0000 	    6.7892 
    0.7401 	    5.6070 	   23.0000 	   32.0000 	    6.8203 
    0.4654 	    5.6230 	   23.0000 	   32.0000 	    6.8523 
    0.6332 	    5.6410 	   23.0000 	   32.0000 	    6.8883 
    0.5264 	    5.6570 	   23.0000 	   32.0000 	    6.9203 
    0.7553 	    5.6735 	   23.0000 	   32.0000 	    6.9533 
    0.6180 	    5.6910 	   23.0000 	   32.0000 	    6.9883 
    0.7401 	    5.7070 	   23.0000 	   32.0000 	    7.0203 
    0.5264 	    5.7225 	   23.0000 	   32.0000 	    7.0513 
    0.6027 	    5.7400 	   23.0000 	   32.0000 	    7.0863 
    0.5417 	    5.7560 	   23.0000 	   32.0000 	    7.1183 
    0.6180 	    5.7720 	   23.0000 	   32.0000 	    7.1503 
    0.6638 	    5.7870 	   23.0000 	   32.0000 	    7.1803 
    0.6943 	    5.8030 	   23.0000 	   32.0000 	    7.2123 
    0.7095 	    5.8190 	   23.0000 	   32.0000 	    7.2443 
    0.5570 	    5.8365 	   23.0000 	   32.0000 	    7.2793 
    0.6332 	    5.8520 	   23.0000 	   32.0000 	    7.3103 
    0.5722 	    5.8680 	   23.0000 	   32.0000 	    7.3423 
    0.6027 	    5.8840 	   23.0000 	   32.0000 	    7.3743 
    0.4807 	    5.9010 	   23.0000 	   32.0000 	    7.4083 
    0.6180 	    5.9170 	   23.0000 	   32.0000 	    7.4403 
    0.4654 	    5.9345 	   23.0000 	   32.0000 	    7.4753 
    0.6943 	    5.9510 	   23.0000 	   32.0000 	    7.5083 
    0.6332 	    5.9665 	   23.0000 	   32.0000 	    7.5393 
    0.6485 	    5.9825 	   23.0000 	   32.0000 	    7.5713 
    0.6332 	    5.9985 	   23.0000 	   32.0000 	    7.6033 
    0.7401 	    6.0155 	   23.0000 	   32.0000 	    7.6373 
    0.6943 	    6.0295 	   23.0000 	   32.0000 	    7.6653 
    0.6485 	    6.0470 	   23.0000 	   32.0000 	    7.7003 
    0.6332 	    6.0620 	   23.0000 	   32.0000 	    7.7303 
    0.6485 	    6.0775 	   23.0000 	   32.0000 	    7.7613 
    0.6332 	    6.0925 	   23.0000 	   32.0000 	    7.7913 
    0.8164 	    6.1080 	   23.0000 	   32.0000 	    7.8223 
