Thayer School of Engineering        Instron 4442 Mechanical Testing System
7/9/2018 3:05:53 AM

  Force (N)	Extension (mm)	Not Used	Not Used	Not Used	     Hour	    Minute	    Second
    0.4654 	    2.0620 	    3.0000 	    6.0000 	   13.2518 
    0.2976 	    2.1220 	    3.0000 	    6.0000 	   13.2818 
    0.2823 	    2.2620 	    3.0000 	    6.0000 	   13.3518 
    0.2365 	    2.3880 	    3.0000 	    6.0000 	   13.4148 
    0.3738 	    2.4480 	    3.0000 	    6.0000 	   13.4448 
    0.4044 	    2.5580 	    3.0000 	    6.0000 	   13.4998 
    0.3891 	    2.6540 	    3.0000 	    6.0000 	   13.5478 
    0.3586 	    2.7140 	    3.0000 	    6.0000 	   13.5778 
    0.0839 	    2.7680 	    3.0000 	    6.0000 	   13.6048 
    0.4501 	    2.8720 	    3.0000 	    6.0000 	   13.6568 
    0.3738 	    2.9720 	    3.0000 	    6.0000 	   13.7068 
    0.4349 	    3.0740 	    3.0000 	    6.0000 	   13.7578 
    0.2823 	    3.1780 	    3.0000 	    6.0000 	   13.8098 
    0.4501 	    3.2400 	    3.0000 	    6.0000 	   13.8408 
    0.4349 	    3.3520 	    3.0000 	    6.0000 	   13.8968 
    0.2213 	    3.4600 	    3.0000 	    6.0000 	   13.9508 
    0.5722 	    3.5660 	    3.0000 	    6.0000 	   14.0038 
    0.3586 	    3.6680 	    3.0000 	    6.0000 	   14.0548 
    0.3433 	    3.7700 	    3.0000 	    6.0000 	   14.1058 
    0.0229 	    3.8700 	    3.0000 	    6.0000 	   14.1558 
    0.5264 	    3.9340 	    3.0000 	    6.0000 	   14.1878 
    0.3586 	    4.0460 	    3.0000 	    6.0000 	   14.2438 
    0.4044 	    4.1540 	    3.0000 	    6.0000 	   14.2978 
    0.4349 	    4.2600 	    3.0000 	    6.0000 	   14.3508 
    0.3891 	    4.3640 	    3.0000 	    6.0000 	   14.4028 
    0.4196 	    4.4220 	    3.0000 	    6.0000 	   14.4318 
    0.2823 	    4.4820 	    3.0000 	    6.0000 	   14.4618 
    0.3738 	    4.5380 	    3.0000 	    6.0000 	   14.4898 
    0.4196 	    4.6440 	    3.0000 	    6.0000 	   14.5428 
    0.4501 	    4.7480 	    3.0000 	    6.0000 	   14.5948 
    0.3891 	    4.8060 	    3.0000 	    6.0000 	   14.6238 
    0.3738 	    4.9200 	    3.0000 	    6.0000 	   14.6808 
    0.4044 	    5.0260 	    3.0000 	    6.0000 	   14.7338 
    0.3433 	    5.0980 	    3.0000 	    6.0000 	   14.7698 
    0.4196 	    5.1560 	    3.0000 	    6.0000 	   14.7988 
    0.3891 	    5.2720 	    3.0000 	    6.0000 	   14.8568 
    0.4807 	    5.3760 	    3.0000 	    6.0000 	   14.9088 
    0.5722 	    5.4440 	    3.0000 	    6.0000 	   14.9429 
    0.3891 	    5.5640 	    3.0000 	    6.0000 	   15.0029 
    0.4959 	    5.6680 	    3.0000 	    6.0000 	   15.0549 
    0.3281 	    5.7720 	    3.0000 	    6.0000 	   15.1069 
    0.3281 	    5.8800 	    3.0000 	    6.0000 	   15.1609 
    0.1755 	    5.9940 	    3.0000 	    6.0000 	   15.2179 
    0.4349 	    6.0520 	    3.0000 	    6.0000 	   15.2469 
    0.2213 	    6.1580 	    3.0000 	    6.0000 	   15.2999 
    0.5417 	    6.2620 	    3.0000 	    6.0000 	   15.3519 
    0.2670 	    6.3740 	    3.0000 	    6.0000 	   15.4079 
    0.3738 	    6.4940 	    3.0000 	    6.0000 	   15.4679 
    0.3128 	    6.5540 	    3.0000 	    6.0000 	   15.4979 
    0.4349 	    6.6080 	    3.0000 	    6.0000 	   15.5249 
    0.3738 	    6.6600 	    3.0000 	    6.0000 	   15.5509 
    0.4349 	    6.7220 	    3.0000 	    6.0000 	   15.5819 
    0.2976 	    6.7900 	    3.0000 	    6.0000 	   15.6159 
    0.3433 	    6.8580 	    3.0000 	    6.0000 	   15.6499 
    0.3433 	    6.9300 	    3.0000 	    6.0000 	   15.6859 
    0.3586 	    6.9920 	    3.0000 	    6.0000 	   15.7169 
    0.4654 	    7.0560 	    3.0000 	    6.0000 	   15.7489 
    0.5875 	    7.1220 	    3.0000 	    6.0000 	   15.7819 
    0.4044 	    7.1860 	    3.0000 	    6.0000 	   15.8139 
    0.2976 	    7.2500 	    3.0000 	    6.0000 	   15.8459 
    0.4044 	    7.3140 	    3.0000 	    6.0000 	   15.8779 
    0.2823 	    7.3800 	    3.0000 	    6.0000 	   15.9109 
    0.3281 	    7.4440 	    3.0000 	    6.0000 	   15.9429 
    0.2365 	    7.5060 	    3.0000 	    6.0000 	   15.9739 
    0.4807 	    7.5680 	    3.0000 	    6.0000 	   16.0049 
    0.4349 	    7.6320 	    3.0000 	    6.0000 	   16.0369 
    0.3891 	    7.6960 	    3.0000 	    6.0000 	   16.0689 
    0.3891 	    7.7600 	    3.0000 	    6.0000 	   16.1009 
    0.3891 	    7.8260 	    3.0000 	    6.0000 	   16.1339 
    0.4501 	    7.8920 	    3.0000 	    6.0000 	   16.1669 
    0.3586 	    7.9600 	    3.0000 	    6.0000 	   16.2009 
    0.5112 	    8.0280 	    3.0000 	    6.0000 	   16.2349 
    0.4044 	    8.0920 	    3.0000 	    6.0000 	   16.2669 
    0.4196 	    8.1640 	    3.0000 	    6.0000 	   16.3029 
    0.3433 	    8.2240 	    3.0000 	    6.0000 	   16.3329 
    0.3281 	    8.2880 	    3.0000 	    6.0000 	   16.3649 
    0.4654 	    8.3500 	    3.0000 	    6.0000 	   16.3959 
    0.5112 	    8.4100 	    3.0000 	    6.0000 	   16.4259 
    0.5112 	    8.4680 	    3.0000 	    6.0000 	   16.4549 
    0.1297 	    8.5240 	    3.0000 	    6.0000 	   16.4829 
    0.3586 	    8.5780 	    3.0000 	    6.0000 	   16.5099 
    0.3586 	    8.6840 	    3.0000 	    6.0000 	   16.5629 
    0.4959 	    8.7320 	    3.0000 	    6.0000 	   16.5869 
    0.5722 	    8.7880 	    3.0000 	    6.0000 	   16.6149 
    0.4196 	    8.8460 	    3.0000 	    6.0000 	   16.6439 
    0.4501 	    8.8980 	    3.0000 	    6.0000 	   16.6700 
    0.3738 	    8.9540 	    3.0000 	    6.0000 	   16.6980 
    0.3738 	    9.0020 	    3.0000 	    6.0000 	   16.7220 
    0.4654 	    9.0560 	    3.0000 	    6.0000 	   16.7490 
    0.3586 	    9.1120 	    3.0000 	    6.0000 	   16.7770 
    0.3891 	    9.1620 	    3.0000 	    6.0000 	   16.8020 
    0.4044 	    9.2300 	    3.0000 	    6.0000 	   16.8360 
    0.5722 	    9.2880 	    3.0000 	    6.0000 	   16.8650 
    0.5722 	    9.3520 	    3.0000 	    6.0000 	   16.8970 
    0.3891 	    9.4080 	    3.0000 	    6.0000 	   16.9250 
    0.4349 	    9.4680 	    3.0000 	    6.0000 	   16.9550 
    0.5722 	    9.5280 	    3.0000 	    6.0000 	   16.9850 
    0.4501 	    9.5860 	    3.0000 	    6.0000 	   17.0140 
    0.3738 	    9.6500 	    3.0000 	    6.0000 	   17.0460 
    0.4959 	    9.7060 	    3.0000 	    6.0000 	   17.0740 
    0.2976 	    9.7700 	    3.0000 	    6.0000 	   17.1060 
    0.3891 	    9.8340 	    3.0000 	    6.0000 	   17.1380 
    0.3738 	    9.8920 	    3.0000 	    6.0000 	   17.1670 
    0.1144 	    9.9660 	    3.0000 	    6.0000 	   17.2040 
    0.3586 	   10.0240 	    3.0000 	    6.0000 	   17.2330 
    0.4959 	   10.0920 	    3.0000 	    6.0000 	   17.2670 
    0.4501 	   10.1600 	    3.0000 	    6.0000 	   17.3010 
    0.4959 	   10.2200 	    3.0000 	    6.0000 	   17.3310 
    0.4501 	   10.2820 	    3.0000 	    6.0000 	   17.3620 
    0.2823 	   10.3400 	    3.0000 	    6.0000 	   17.3910 
    0.3891 	   10.3900 	    3.0000 	    6.0000 	   17.4160 
    0.3738 	   10.4520 	    3.0000 	    6.0000 	   17.4470 
    0.4959 	   10.5040 	    3.0000 	    6.0000 	   17.4730 
    0.4654 	   10.5600 	    3.0000 	    6.0000 	   17.5010 
    0.3738 	   10.6120 	    3.0000 	    6.0000 	   17.5270 
    0.4196 	   10.6620 	    3.0000 	    6.0000 	   17.5520 
    0.4807 	   10.7260 	    3.0000 	    6.0000 	   17.5840 
    0.3128 	   10.7880 	    3.0000 	    6.0000 	   17.6150 
    0.3891 	   10.8460 	    3.0000 	    6.0000 	   17.6440 
    0.4654 	   10.9080 	    3.0000 	    6.0000 	   17.6750 
    0.4044 	   10.9740 	    3.0000 	    6.0000 	   17.7080 
    0.3433 	   11.0320 	    3.0000 	    6.0000 	   17.7370 
    0.2976 	   11.0920 	    3.0000 	    6.0000 	   17.7670 
    0.1755 	   11.1560 	    3.0000 	    6.0000 	   17.7990 
    0.5417 	   11.2220 	    3.0000 	    6.0000 	   17.8310 
    0.3891 	   11.2800 	    3.0000 	    6.0000 	   17.8600 
    0.4959 	   11.3420 	    3.0000 	    6.0000 	   17.8910 
    0.3586 	   11.4020 	    3.0000 	    6.0000 	   17.9210 
    0.5264 	   11.4620 	    3.0000 	    6.0000 	   17.9510 
    0.1602 	   11.5300 	    3.0000 	    6.0000 	   17.9850 
    0.4196 	   11.5940 	    3.0000 	    6.0000 	   18.0170 
    0.4654 	   11.6560 	    3.0000 	    6.0000 	   18.0480 
    0.5264 	   11.7180 	    3.0000 	    6.0000 	   18.0790 
    0.4501 	   11.7840 	    3.0000 	    6.0000 	   18.1120 
    0.3738 	   11.8400 	    3.0000 	    6.0000 	   18.1400 
    0.5722 	   11.9020 	    3.0000 	    6.0000 	   18.1710 
    0.4349 	   11.9680 	    3.0000 	    6.0000 	   18.2040 
    0.4349 	   12.0260 	    3.0000 	    6.0000 	   18.2330 
    0.3738 	   12.0940 	    3.0000 	    6.0000 	   18.2670 
    0.5417 	   12.1620 	    3.0000 	    6.0000 	   18.3010 
    0.5875 	   12.2240 	    3.0000 	    6.0000 	   18.3320 
    0.5264 	   12.2800 	    3.0000 	    6.0000 	   18.3600 
    0.4044 	   12.3420 	    3.0000 	    6.0000 	   18.3910 
    0.4807 	   12.3960 	    3.0000 	    6.0000 	   18.4180 
    0.4959 	   12.4500 	    3.0000 	    6.0000 	   18.4451 
    0.4349 	   12.5020 	    3.0000 	    6.0000 	   18.4711 
    0.4959 	   12.5580 	    3.0000 	    6.0000 	   18.4991 
    0.6332 	   12.6100 	    3.0000 	    6.0000 	   18.5251 
    0.5417 	   12.6600 	    3.0000 	    6.0000 	   18.5501 
    0.3891 	   12.7760 	    3.0000 	    6.0000 	   18.6081 
    0.3586 	   12.8300 	    3.0000 	    6.0000 	   18.6351 
    0.2213 	   12.8940 	    3.0000 	    6.0000 	   18.6671 
    0.5264 	   12.9680 	    3.0000 	    6.0000 	   18.7041 
    0.4959 	   13.0320 	    3.0000 	    6.0000 	   18.7361 
    0.6180 	   13.0960 	    3.0000 	    6.0000 	   18.7681 
    0.3586 	   13.1640 	    3.0000 	    6.0000 	   18.8021 
    0.4807 	   13.2260 	    3.0000 	    6.0000 	   18.8331 
    0.3433 	   13.2920 	    3.0000 	    6.0000 	   18.8661 
    0.5875 	   13.3600 	    3.0000 	    6.0000 	   18.9001 
    0.4349 	   13.4300 	    3.0000 	    6.0000 	   18.9351 
    0.4349 	   13.4920 	    3.0000 	    6.0000 	   18.9661 
    0.5264 	   13.5660 	    3.0000 	    6.0000 	   19.0031 
    0.5570 	   13.6280 	    3.0000 	    6.0000 	   19.0341 
    0.3738 	   13.6900 	    3.0000 	    6.0000 	   19.0651 
    0.2060 	   13.7580 	    3.0000 	    6.0000 	   19.0991 
    0.5112 	   13.8220 	    3.0000 	    6.0000 	   19.1311 
    0.1297 	   13.8860 	    3.0000 	    6.0000 	   19.1631 
    0.5112 	   13.9560 	    3.0000 	    6.0000 	   19.1981 
    0.5112 	   14.0200 	    3.0000 	    6.0000 	   19.2301 
    0.3433 	   14.0800 	    3.0000 	    6.0000 	   19.2601 
    0.3586 	   14.1480 	    3.0000 	    6.0000 	   19.2941 
    0.6790 	   14.2080 	    3.0000 	    6.0000 	   19.3241 
    0.4349 	   14.2600 	    3.0000 	    6.0000 	   19.3501 
    0.5264 	   14.3260 	    3.0000 	    6.0000 	   19.3831 
    0.2670 	   14.3840 	    3.0000 	    6.0000 	   19.4121 
    0.3586 	   14.4380 	    3.0000 	    6.0000 	   19.4391 
    0.4959 	   14.4940 	    3.0000 	    6.0000 	   19.4671 
    0.4349 	   14.5540 	    3.0000 	    6.0000 	   19.4971 
    0.4044 	   14.6080 	    3.0000 	    6.0000 	   19.5241 
    0.4349 	   14.6640 	    3.0000 	    6.0000 	   19.5521 
    0.4349 	   14.7180 	    3.0000 	    6.0000 	   19.5791 
    0.3128 	   14.7800 	    3.0000 	    6.0000 	   19.6101 
    0.5112 	   14.8380 	    3.0000 	    6.0000 	   19.6391 
    0.3738 	   14.9040 	    3.0000 	    6.0000 	   19.6721 
    0.5112 	   14.9760 	    3.0000 	    6.0000 	   19.7081 
    0.4959 	   15.0360 	    3.0000 	    6.0000 	   19.7381 
    0.5417 	   15.0960 	    3.0000 	    6.0000 	   19.7681 
    0.3738 	   15.1720 	    3.0000 	    6.0000 	   19.8061 
    0.5112 	   15.2300 	    3.0000 	    6.0000 	   19.8351 
    0.4959 	   15.2940 	    3.0000 	    6.0000 	   19.8671 
    0.5264 	   15.3600 	    3.0000 	    6.0000 	   19.9001 
    0.3586 	   15.4400 	    3.0000 	    6.0000 	   19.9401 
    0.6638 	   15.5020 	    3.0000 	    6.0000 	   19.9711 
    0.4349 	   15.5720 	    3.0000 	    6.0000 	   20.0061 
    0.5264 	   15.6340 	    3.0000 	    6.0000 	   20.0371 
    0.3738 	   15.6940 	    3.0000 	    6.0000 	   20.0671 
    0.4501 	   15.7620 	    3.0000 	    6.0000 	   20.1011 
    0.3891 	   15.8300 	    3.0000 	    6.0000 	   20.1351 
    0.4501 	   15.8920 	    3.0000 	    6.0000 	   20.1661 
    0.5570 	   15.9600 	    3.0000 	    6.0000 	   20.2002 
    0.3586 	   16.0240 	    3.0000 	    6.0000 	   20.2322 
    0.4807 	   16.0880 	    3.0000 	    6.0000 	   20.2642 
    0.4807 	   16.1540 	    3.0000 	    6.0000 	   20.2972 
    0.3738 	   16.2160 	    3.0000 	    6.0000 	   20.3282 
    0.4044 	   16.2720 	    3.0000 	    6.0000 	   20.3562 
    0.5875 	   16.3360 	    3.0000 	    6.0000 	   20.3882 
    0.5570 	   16.3960 	    3.0000 	    6.0000 	   20.4182 
    0.4959 	   16.4520 	    3.0000 	    6.0000 	   20.4462 
    0.5264 	   16.5060 	    3.0000 	    6.0000 	   20.4732 
    0.5722 	   16.5700 	    3.0000 	    6.0000 	   20.5052 
    0.3433 	   16.6240 	    3.0000 	    6.0000 	   20.5322 
    0.7248 	   16.6780 	    3.0000 	    6.0000 	   20.5592 
    0.2823 	   16.7360 	    3.0000 	    6.0000 	   20.5882 
    0.3738 	   16.7920 	    3.0000 	    6.0000 	   20.6162 
    0.4959 	   16.8460 	    3.0000 	    6.0000 	   20.6432 
    0.5875 	   16.9020 	    3.0000 	    6.0000 	   20.6712 
    0.4349 	   16.9720 	    3.0000 	    6.0000 	   20.7062 
    0.5264 	   17.0240 	    3.0000 	    6.0000 	   20.7322 
    0.0992 	   17.0800 	    3.0000 	    6.0000 	   20.7602 
    0.4501 	   17.1400 	    3.0000 	    6.0000 	   20.7902 
    0.5417 	   17.1960 	    3.0000 	    6.0000 	   20.8182 
    0.5112 	   17.2500 	    3.0000 	    6.0000 	   20.8452 
    0.4349 	   17.3080 	    3.0000 	    6.0000 	   20.8742 
    0.4959 	   17.3660 	    3.0000 	    6.0000 	   20.9032 
    0.5570 	   17.4380 	    3.0000 	    6.0000 	   20.9392 
    0.4654 	   17.4960 	    3.0000 	    6.0000 	   20.9682 
    0.4654 	   17.5500 	    3.0000 	    6.0000 	   20.9952 
    0.3281 	   17.6040 	    3.0000 	    6.0000 	   21.0222 
    0.5570 	   17.6680 	    3.0000 	    6.0000 	   21.0542 
    0.4959 	   17.7320 	    3.0000 	    6.0000 	   21.0862 
    0.5570 	   17.7840 	    3.0000 	    6.0000 	   21.1122 
    0.5264 	   17.8380 	    3.0000 	    6.0000 	   21.1392 
    0.6332 	   17.9000 	    3.0000 	    6.0000 	   21.1702 
    0.7401 	   17.9540 	    3.0000 	    6.0000 	   21.1972 
    0.5875 	   18.0080 	    3.0000 	    6.0000 	   21.2242 
    0.5112 	   18.0660 	    3.0000 	    6.0000 	   21.2532 
    0.4807 	   18.1340 	    3.0000 	    6.0000 	   21.2872 
    0.4501 	   18.2000 	    3.0000 	    6.0000 	   21.3202 
    0.3433 	   18.2620 	    3.0000 	    6.0000 	   21.3512 
    0.4044 	   18.3200 	    3.0000 	    6.0000 	   21.3802 
    0.4959 	   18.3840 	    3.0000 	    6.0000 	   21.4122 
    0.5112 	   18.4400 	    3.0000 	    6.0000 	   21.4402 
    0.3738 	   18.4940 	    3.0000 	    6.0000 	   21.4672 
    0.3433 	   18.5500 	    3.0000 	    6.0000 	   21.4952 
    0.5264 	   18.6020 	    3.0000 	    6.0000 	   21.5212 
    0.4501 	   18.6680 	    3.0000 	    6.0000 	   21.5542 
    0.3891 	   18.7280 	    3.0000 	    6.0000 	   21.5842 
    0.5417 	   18.7820 	    3.0000 	    6.0000 	   21.6112 
    0.5570 	   18.8340 	    3.0000 	    6.0000 	   21.6372 
    0.3891 	   18.8980 	    3.0000 	    6.0000 	   21.6692 
    0.0992 	   18.9560 	    3.0000 	    6.0000 	   21.6982 
    0.4349 	   19.0140 	    3.0000 	    6.0000 	   21.7272 
    0.4807 	   19.0720 	    3.0000 	    6.0000 	   21.7562 
    0.4501 	   19.1400 	    3.0000 	    6.0000 	   21.7902 
    0.4959 	   19.1980 	    3.0000 	    6.0000 	   21.8192 
    0.4349 	   19.2620 	    3.0000 	    6.0000 	   21.8512 
    0.5417 	   19.3260 	    3.0000 	    6.0000 	   21.8832 
    0.4044 	   19.3960 	    3.0000 	    6.0000 	   21.9183 
    0.4044 	   19.4480 	    3.0000 	    6.0000 	   21.9443 
    0.5417 	   19.5020 	    3.0000 	    6.0000 	   21.9713 
    0.4349 	   19.5580 	    3.0000 	    6.0000 	   21.9993 
    0.2670 	   19.6200 	    3.0000 	    6.0000 	   22.0303 
    0.4196 	   19.6740 	    3.0000 	    6.0000 	   22.0573 
    0.4654 	   19.7280 	    3.0000 	    6.0000 	   22.0843 
    0.4044 	   19.7840 	    3.0000 	    6.0000 	   22.1123 
    0.5264 	   19.8380 	    3.0000 	    6.0000 	   22.1393 
    0.4959 	   19.8940 	    3.0000 	    6.0000 	   22.1673 
    0.5722 	   19.9500 	    3.0000 	    6.0000 	   22.1953 
    0.4196 	   20.0080 	    3.0000 	    6.0000 	   22.2243 
    0.5264 	   20.0640 	    3.0000 	    6.0000 	   22.2523 
    0.5570 	   20.1240 	    3.0000 	    6.0000 	   22.2823 
    0.6790 	   20.1800 	    3.0000 	    6.0000 	   22.3103 
    0.6027 	   20.2340 	    3.0000 	    6.0000 	   22.3373 
    0.3891 	   20.2880 	    3.0000 	    6.0000 	   22.3643 
    0.5570 	   20.3420 	    3.0000 	    6.0000 	   22.3913 
    0.4196 	   20.3980 	    3.0000 	    6.0000 	   22.4193 
    0.5417 	   20.4560 	    3.0000 	    6.0000 	   22.4483 
    0.3586 	   20.5100 	    3.0000 	    6.0000 	   22.4753 
    0.5112 	   20.5640 	    3.0000 	    6.0000 	   22.5023 
    0.4654 	   20.6280 	    3.0000 	    6.0000 	   22.5343 
    0.5875 	   20.6840 	    3.0000 	    6.0000 	   22.5623 
    0.5570 	   20.7340 	    3.0000 	    6.0000 	   22.5873 
    0.5417 	   20.7860 	    3.0000 	    6.0000 	   22.6133 
    0.5417 	   20.8420 	    3.0000 	    6.0000 	   22.6413 
    0.4654 	   20.9060 	    3.0000 	    6.0000 	   22.6733 
    0.4044 	   20.9740 	    3.0000 	    6.0000 	   22.7073 
    0.3586 	   21.0380 	    3.0000 	    6.0000 	   22.7393 
    0.4501 	   21.0980 	    3.0000 	    6.0000 	   22.7693 
    0.7095 	   21.1640 	    3.0000 	    6.0000 	   22.8023 
    0.6485 	   21.2300 	    3.0000 	    6.0000 	   22.8353 
    0.5264 	   21.2980 	    3.0000 	    6.0000 	   22.8693 
    0.4349 	   21.3620 	    3.0000 	    6.0000 	   22.9013 
    0.5722 	   21.4260 	    3.0000 	    6.0000 	   22.9333 
    0.4501 	   21.4920 	    3.0000 	    6.0000 	   22.9663 
    0.4349 	   21.5600 	    3.0000 	    6.0000 	   23.0003 
    0.4501 	   21.6300 	    3.0000 	    6.0000 	   23.0353 
    0.5875 	   21.6980 	    3.0000 	    6.0000 	   23.0693 
    0.5264 	   21.7600 	    3.0000 	    6.0000 	   23.1003 
    0.4959 	   21.8240 	    3.0000 	    6.0000 	   23.1323 
    0.3738 	   21.8980 	    3.0000 	    6.0000 	   23.1693 
    0.4196 	   21.9620 	    3.0000 	    6.0000 	   23.2013 
    0.5417 	   22.0280 	    3.0000 	    6.0000 	   23.2343 
    0.5417 	   22.0920 	    3.0000 	    6.0000 	   23.2663 
    0.6790 	   22.1660 	    3.0000 	    6.0000 	   23.3033 
    0.3128 	   22.2280 	    3.0000 	    6.0000 	   23.3343 
    0.5417 	   22.2980 	    3.0000 	    6.0000 	   23.3693 
    0.4044 	   22.3520 	    3.0000 	    6.0000 	   23.3963 
    0.5570 	   22.4080 	    3.0000 	    6.0000 	   23.4243 
    0.5112 	   22.4680 	    3.0000 	    6.0000 	   23.4543 
    0.4959 	   22.5260 	    3.0000 	    6.0000 	   23.4833 
    0.5112 	   22.5820 	    3.0000 	    6.0000 	   23.5113 
    0.4349 	   22.6460 	    3.0000 	    6.0000 	   23.5433 
    0.5112 	   22.7020 	    3.0000 	    6.0000 	   23.5713 
    0.5112 	   22.7560 	    3.0000 	    6.0000 	   23.5983 
    0.5722 	   22.8140 	    3.0000 	    6.0000 	   23.6273 
    0.5112 	   22.8740 	    3.0000 	    6.0000 	   23.6573 
    0.4196 	   22.9360 	    3.0000 	    6.0000 	   23.6884 
    0.5570 	   22.9980 	    3.0000 	    6.0000 	   23.7194 
    0.5112 	   23.0660 	    3.0000 	    6.0000 	   23.7534 
    0.5417 	   23.1300 	    3.0000 	    6.0000 	   23.7854 
    0.4044 	   23.2040 	    3.0000 	    6.0000 	   23.8224 
    0.2518 	   23.2700 	    3.0000 	    6.0000 	   23.8554 
    0.3586 	   23.3340 	    3.0000 	    6.0000 	   23.8874 
    0.5722 	   23.3980 	    3.0000 	    6.0000 	   23.9194 
    0.5570 	   23.4600 	    3.0000 	    6.0000 	   23.9504 
    0.6180 	   23.5280 	    3.0000 	    6.0000 	   23.9844 
    0.8011 	   23.5940 	    3.0000 	    6.0000 	   24.0174 
    0.4959 	   23.6700 	    3.0000 	    6.0000 	   24.0554 
    0.4501 	   23.7380 	    3.0000 	    6.0000 	   24.0894 
    0.4349 	   23.8060 	    3.0000 	    6.0000 	   24.1234 
