Thayer School of Engineering        Instron 4442 Mechanical Testing System
7/9/2018 2:36:33 AM

  Force (N)	Extension (mm)	Not Used	Not Used	Not Used	     Hour	    Minute	    Second
    0.4654 	    2.0480 	    2.0000 	   36.0000 	   57.4263 
    0.3891 	    2.1020 	    2.0000 	   36.0000 	   57.4533 
    0.6485 	    2.2320 	    2.0000 	   36.0000 	   57.5183 
    0.4654 	    2.3520 	    2.0000 	   36.0000 	   57.5783 
    0.4959 	    2.4600 	    2.0000 	   36.0000 	   57.6323 
    0.3433 	    2.5620 	    2.0000 	   36.0000 	   57.6833 
    0.5112 	    2.6260 	    2.0000 	   36.0000 	   57.7153 
    0.3586 	    2.7400 	    2.0000 	   36.0000 	   57.7723 
    0.5264 	    2.8440 	    2.0000 	   36.0000 	   57.8243 
    0.5112 	    2.9480 	    2.0000 	   36.0000 	   57.8764 
    0.2976 	    3.0520 	    2.0000 	   36.0000 	   57.9284 
    0.5112 	    3.1220 	    2.0000 	   36.0000 	   57.9634 
    0.3891 	    3.2360 	    2.0000 	   36.0000 	   58.0204 
    0.3586 	    3.3440 	    2.0000 	   36.0000 	   58.0744 
    0.4959 	    3.4500 	    2.0000 	   36.0000 	   58.1274 
    0.3433 	    3.5560 	    2.0000 	   36.0000 	   58.1804 
    0.5570 	    3.6600 	    2.0000 	   36.0000 	   58.2324 
    0.3891 	    3.7640 	    2.0000 	   36.0000 	   58.2844 
    0.4959 	    3.8700 	    2.0000 	   36.0000 	   58.3364 
    0.4959 	    3.9780 	    2.0000 	   36.0000 	   58.3914 
    0.2060 	    4.0860 	    2.0000 	   36.0000 	   58.4454 
    0.6332 	    4.1540 	    2.0000 	   36.0000 	   58.4794 
    0.4501 	    4.2720 	    2.0000 	   36.0000 	   58.5384 
    0.4959 	    4.3800 	    2.0000 	   36.0000 	   58.5924 
    0.4349 	    4.4840 	    2.0000 	   36.0000 	   58.6444 
    0.4654 	    4.5940 	    2.0000 	   36.0000 	   58.6994 
    0.3586 	    4.6980 	    2.0000 	   36.0000 	   58.7514 
    0.4959 	    4.7980 	    2.0000 	   36.0000 	   58.8014 
    0.4654 	    4.9100 	    2.0000 	   36.0000 	   58.8574 
    0.4501 	    5.0140 	    2.0000 	   36.0000 	   58.9094 
    0.5264 	    5.0780 	    2.0000 	   36.0000 	   58.9414 
    0.4044 	    5.1900 	    2.0000 	   36.0000 	   58.9974 
    0.4349 	    5.2960 	    2.0000 	   36.0000 	   59.0504 
    0.6027 	    5.4020 	    2.0000 	   36.0000 	   59.1034 
    0.4349 	    5.4600 	    2.0000 	   36.0000 	   59.1324 
    0.5264 	    5.5740 	    2.0000 	   36.0000 	   59.1894 
    0.4349 	    5.6920 	    2.0000 	   36.0000 	   59.2484 
    0.3128 	    5.7940 	    2.0000 	   36.0000 	   59.2994 
    0.5570 	    5.8980 	    2.0000 	   36.0000 	   59.3514 
    0.6180 	    6.0000 	    2.0000 	   36.0000 	   59.4024 
    0.5875 	    6.1060 	    2.0000 	   36.0000 	   59.4554 
    0.4959 	    6.1740 	    2.0000 	   36.0000 	   59.4894 
    0.4196 	    6.2340 	    2.0000 	   36.0000 	   59.5194 
    0.3128 	    6.3480 	    2.0000 	   36.0000 	   59.5755 
    0.3128 	    6.4160 	    2.0000 	   36.0000 	   59.6095 
    0.3891 	    6.5360 	    2.0000 	   36.0000 	   59.6685 
    0.4959 	    6.5980 	    2.0000 	   36.0000 	   59.7005 
    0.2670 	    6.6620 	    2.0000 	   36.0000 	   59.7325 
    0.3891 	    6.7220 	    2.0000 	   36.0000 	   59.7625 
    0.4349 	    6.8420 	    2.0000 	   36.0000 	   59.8215 
    0.4501 	    6.9100 	    2.0000 	   36.0000 	   59.8565 
    0.4501 	    6.9740 	    2.0000 	   36.0000 	   59.8885 
    0.4349 	    7.0420 	    2.0000 	   36.0000 	   59.9225 
    0.5570 	    7.1100 	    2.0000 	   36.0000 	   59.9565 
    0.4654 	    7.1720 	    2.0000 	   36.0000 	   59.9875 
    0.5112 	    7.2380 	    2.0000 	   37.0000 	    0.0205 
    0.4349 	    7.2980 	    2.0000 	   37.0000 	    0.0505 
    0.6180 	    7.3640 	    2.0000 	   37.0000 	    0.0835 
    0.4959 	    7.4280 	    2.0000 	   37.0000 	    0.1155 
    0.5417 	    7.4920 	    2.0000 	   37.0000 	    0.1475 
    0.3738 	    7.5580 	    2.0000 	   37.0000 	    0.1805 
    0.6180 	    7.6220 	    2.0000 	   37.0000 	    0.2125 
    0.5112 	    7.6920 	    2.0000 	   37.0000 	    0.2475 
    0.5570 	    7.7600 	    2.0000 	   37.0000 	    0.2815 
    0.4959 	    7.8260 	    2.0000 	   37.0000 	    0.3145 
    0.3433 	    7.8960 	    2.0000 	   37.0000 	    0.3495 
    0.4959 	    7.9600 	    2.0000 	   37.0000 	    0.3815 
    0.4959 	    8.0260 	    2.0000 	   37.0000 	    0.4145 
    0.5264 	    8.0880 	    2.0000 	   37.0000 	    0.4455 
    0.5875 	    8.1540 	    2.0000 	   37.0000 	    0.4785 
    0.4959 	    8.2180 	    2.0000 	   37.0000 	    0.5105 
    0.4349 	    8.2860 	    2.0000 	   37.0000 	    0.5445 
    0.5875 	    8.3580 	    2.0000 	   37.0000 	    0.5805 
    0.3586 	    8.4260 	    2.0000 	   37.0000 	    0.6145 
    0.4349 	    8.4900 	    2.0000 	   37.0000 	    0.6465 
    0.5264 	    8.5540 	    2.0000 	   37.0000 	    0.6785 
    0.6332 	    8.6160 	    2.0000 	   37.0000 	    0.7095 
    0.3128 	    8.6820 	    2.0000 	   37.0000 	    0.7425 
    0.6332 	    8.7460 	    2.0000 	   37.0000 	    0.7745 
    0.4654 	    8.8100 	    2.0000 	   37.0000 	    0.8065 
    0.4501 	    8.8760 	    2.0000 	   37.0000 	    0.8395 
    0.4349 	    8.9420 	    2.0000 	   37.0000 	    0.8725 
    0.5264 	    8.9980 	    2.0000 	   37.0000 	    0.9005 
    0.5112 	    9.0620 	    2.0000 	   37.0000 	    0.9325 
    0.3738 	    9.1240 	    2.0000 	   37.0000 	    0.9635 
    0.4654 	    9.1940 	    2.0000 	   37.0000 	    0.9985 
    0.4959 	    9.2600 	    2.0000 	   37.0000 	    1.0315 
    0.3738 	    9.3200 	    2.0000 	   37.0000 	    1.0615 
    0.5570 	    9.3880 	    2.0000 	   37.0000 	    1.0955 
    0.5264 	    9.4520 	    2.0000 	   37.0000 	    1.1275 
    0.4501 	    9.5100 	    2.0000 	   37.0000 	    1.1565 
    0.4654 	    9.5680 	    2.0000 	   37.0000 	    1.1855 
    0.4959 	    9.6380 	    2.0000 	   37.0000 	    1.2205 
    0.4654 	    9.7020 	    2.0000 	   37.0000 	    1.2525 
    0.3586 	    9.7700 	    2.0000 	   37.0000 	    1.2865 
    0.4654 	    9.8360 	    2.0000 	   37.0000 	    1.3195 
    0.6485 	    9.8940 	    2.0000 	   37.0000 	    1.3486 
    0.5875 	    9.9600 	    2.0000 	   37.0000 	    1.3816 
    0.5264 	   10.0240 	    2.0000 	   37.0000 	    1.4136 
    0.5875 	   10.0920 	    2.0000 	   37.0000 	    1.4476 
    0.4349 	   10.1640 	    2.0000 	   37.0000 	    1.4836 
    0.5112 	   10.2240 	    2.0000 	   37.0000 	    1.5136 
    0.5112 	   10.2900 	    2.0000 	   37.0000 	    1.5466 
    0.4959 	   10.3580 	    2.0000 	   37.0000 	    1.5806 
    0.4959 	   10.4180 	    2.0000 	   37.0000 	    1.6106 
    0.5570 	   10.5140 	    2.0000 	   37.0000 	    1.6586 
    0.4807 	   10.5700 	    2.0000 	   37.0000 	    1.6866 
    0.4196 	   10.6300 	    2.0000 	   37.0000 	    1.7166 
    0.2213 	   10.6900 	    2.0000 	   37.0000 	    1.7466 
    0.5264 	   10.7580 	    2.0000 	   37.0000 	    1.7806 
    0.6027 	   10.8220 	    2.0000 	   37.0000 	    1.8126 
    0.4654 	   10.8900 	    2.0000 	   37.0000 	    1.8466 
    0.5722 	   10.9560 	    2.0000 	   37.0000 	    1.8796 
    0.5264 	   11.0180 	    2.0000 	   37.0000 	    1.9106 
    0.5722 	   11.0780 	    2.0000 	   37.0000 	    1.9406 
    0.4959 	   11.1420 	    2.0000 	   37.0000 	    1.9726 
    0.5112 	   11.2000 	    2.0000 	   37.0000 	    2.0016 
    0.4959 	   11.2640 	    2.0000 	   37.0000 	    2.0336 
    0.5875 	   11.3320 	    2.0000 	   37.0000 	    2.0676 
    0.6790 	   11.3900 	    2.0000 	   37.0000 	    2.0966 
    0.3738 	   11.4560 	    2.0000 	   37.0000 	    2.1296 
    0.5570 	   11.5160 	    2.0000 	   37.0000 	    2.1596 
    0.6027 	   11.5820 	    2.0000 	   37.0000 	    2.1926 
    0.5875 	   11.6460 	    2.0000 	   37.0000 	    2.2246 
    0.4501 	   11.7060 	    2.0000 	   37.0000 	    2.2546 
    0.5722 	   11.7680 	    2.0000 	   37.0000 	    2.2856 
    0.5875 	   11.8280 	    2.0000 	   37.0000 	    2.3156 
    0.5112 	   11.8900 	    2.0000 	   37.0000 	    2.3466 
    0.4501 	   11.9540 	    2.0000 	   37.0000 	    2.3786 
    0.5112 	   12.0160 	    2.0000 	   37.0000 	    2.4096 
    0.5417 	   12.0740 	    2.0000 	   37.0000 	    2.4386 
    0.4959 	   12.1400 	    2.0000 	   37.0000 	    2.4716 
    0.4807 	   12.1980 	    2.0000 	   37.0000 	    2.5006 
    0.4501 	   12.2600 	    2.0000 	   37.0000 	    2.5316 
    0.7248 	   12.3180 	    2.0000 	   37.0000 	    2.5606 
    0.4807 	   12.3820 	    2.0000 	   37.0000 	    2.5926 
    0.4196 	   12.4460 	    2.0000 	   37.0000 	    2.6246 
    0.5722 	   12.5100 	    2.0000 	   37.0000 	    2.6566 
    0.5570 	   12.5740 	    2.0000 	   37.0000 	    2.6886 
    0.5570 	   12.6340 	    2.0000 	   37.0000 	    2.7186 
    0.5417 	   12.6940 	    2.0000 	   37.0000 	    2.7486 
    0.6027 	   12.7620 	    2.0000 	   37.0000 	    2.7826 
    0.5112 	   12.8240 	    2.0000 	   37.0000 	    2.8136 
    0.5722 	   12.8840 	    2.0000 	   37.0000 	    2.8436 
    0.5264 	   12.9520 	    2.0000 	   37.0000 	    2.8776 
    0.4959 	   13.0120 	    2.0000 	   37.0000 	    2.9076 
    0.6638 	   13.0720 	    2.0000 	   37.0000 	    2.9376 
    0.5264 	   13.1400 	    2.0000 	   37.0000 	    2.9716 
    0.3281 	   13.2020 	    2.0000 	   37.0000 	    3.0026 
    0.6790 	   13.2660 	    2.0000 	   37.0000 	    3.0346 
    0.4959 	   13.3300 	    2.0000 	   37.0000 	    3.0666 
    0.5875 	   13.3960 	    2.0000 	   37.0000 	    3.0997 
    0.7401 	   13.4540 	    2.0000 	   37.0000 	    3.1287 
    0.6638 	   13.5160 	    2.0000 	   37.0000 	    3.1597 
    0.7401 	   13.5820 	    2.0000 	   37.0000 	    3.1927 
    0.3433 	   13.6420 	    2.0000 	   37.0000 	    3.2227 
    0.4196 	   13.7020 	    2.0000 	   37.0000 	    3.2527 
    0.7401 	   13.7680 	    2.0000 	   37.0000 	    3.2857 
    0.4196 	   13.8280 	    2.0000 	   37.0000 	    3.3157 
    0.7095 	   13.8900 	    2.0000 	   37.0000 	    3.3467 
    0.6180 	   13.9620 	    2.0000 	   37.0000 	    3.3827 
    0.4807 	   14.0200 	    2.0000 	   37.0000 	    3.4117 
    0.6180 	   14.0820 	    2.0000 	   37.0000 	    3.4427 
    0.4501 	   14.1540 	    2.0000 	   37.0000 	    3.4787 
    0.4654 	   14.2140 	    2.0000 	   37.0000 	    3.5087 
    0.6485 	   14.2740 	    2.0000 	   37.0000 	    3.5387 
    0.6638 	   14.3400 	    2.0000 	   37.0000 	    3.5717 
    0.4654 	   14.4020 	    2.0000 	   37.0000 	    3.6027 
    0.5875 	   14.4640 	    2.0000 	   37.0000 	    3.6337 
    0.6027 	   14.5380 	    2.0000 	   37.0000 	    3.6707 
    0.4807 	   14.5980 	    2.0000 	   37.0000 	    3.7007 
    0.5570 	   14.6680 	    2.0000 	   37.0000 	    3.7357 
    0.5875 	   14.7280 	    2.0000 	   37.0000 	    3.7657 
    0.7095 	   14.7860 	    2.0000 	   37.0000 	    3.7947 
    0.4501 	   14.8440 	    2.0000 	   37.0000 	    3.8237 
    0.6332 	   14.9140 	    2.0000 	   37.0000 	    3.8587 
    0.5112 	   14.9720 	    2.0000 	   37.0000 	    3.8877 
    0.4959 	   15.0320 	    2.0000 	   37.0000 	    3.9177 
    0.5722 	   15.0940 	    2.0000 	   37.0000 	    3.9487 
    0.5417 	   15.1660 	    2.0000 	   37.0000 	    3.9847 
    0.1907 	   15.2280 	    2.0000 	   37.0000 	    4.0157 
    0.3891 	   15.2880 	    2.0000 	   37.0000 	    4.0457 
    0.3738 	   15.4140 	    2.0000 	   37.0000 	    4.1087 
    0.3738 	   15.4720 	    2.0000 	   37.0000 	    4.1377 
    0.3128 	   15.5420 	    2.0000 	   37.0000 	    4.1727 
    0.6332 	   15.6000 	    2.0000 	   37.0000 	    4.2017 
    0.6485 	   15.6620 	    2.0000 	   37.0000 	    4.2327 
    0.5570 	   15.7300 	    2.0000 	   37.0000 	    4.2667 
    0.3891 	   15.7960 	    2.0000 	   37.0000 	    4.2997 
    0.6027 	   15.8580 	    2.0000 	   37.0000 	    4.3307 
    0.6638 	   15.9220 	    2.0000 	   37.0000 	    4.3627 
    0.4959 	   15.9880 	    2.0000 	   37.0000 	    4.3957 
    0.5875 	   16.0520 	    2.0000 	   37.0000 	    4.4277 
    0.7706 	   16.1180 	    2.0000 	   37.0000 	    4.4607 
    0.6943 	   16.1880 	    2.0000 	   37.0000 	    4.4957 
    0.6180 	   16.2480 	    2.0000 	   37.0000 	    4.5257 
    0.6638 	   16.3080 	    2.0000 	   37.0000 	    4.5557 
    0.5570 	   16.3800 	    2.0000 	   37.0000 	    4.5917 
    0.6027 	   16.4400 	    2.0000 	   37.0000 	    4.6217 
    0.4959 	   16.4960 	    2.0000 	   37.0000 	    4.6497 
    0.4654 	   16.5580 	    2.0000 	   37.0000 	    4.6807 
    0.6180 	   16.6240 	    2.0000 	   37.0000 	    4.7137 
    0.5875 	   16.6860 	    2.0000 	   37.0000 	    4.7447 
    0.4501 	   16.7600 	    2.0000 	   37.0000 	    4.7817 
    0.6790 	   16.8200 	    2.0000 	   37.0000 	    4.8117 
    0.3891 	   16.8840 	    2.0000 	   37.0000 	    4.8438 
    0.6332 	   16.9540 	    2.0000 	   37.0000 	    4.8788 
    0.5570 	   17.0180 	    2.0000 	   37.0000 	    4.9108 
    0.5570 	   17.0780 	    2.0000 	   37.0000 	    4.9408 
    0.5875 	   17.1460 	    2.0000 	   37.0000 	    4.9748 
    0.6027 	   17.2060 	    2.0000 	   37.0000 	    5.0048 
    0.5112 	   17.2700 	    2.0000 	   37.0000 	    5.0368 
    0.6943 	   17.3340 	    2.0000 	   37.0000 	    5.0688 
    0.6638 	   17.4040 	    2.0000 	   37.0000 	    5.1038 
    0.5264 	   17.4640 	    2.0000 	   37.0000 	    5.1338 
    0.6638 	   17.5360 	    2.0000 	   37.0000 	    5.1698 
    0.6180 	   17.5960 	    2.0000 	   37.0000 	    5.1998 
    0.3281 	   17.6660 	    2.0000 	   37.0000 	    5.2348 
    0.4807 	   17.7300 	    2.0000 	   37.0000 	    5.2668 
    0.5570 	   17.7960 	    2.0000 	   37.0000 	    5.2998 
    0.5722 	   17.8580 	    2.0000 	   37.0000 	    5.3308 
    0.6180 	   17.9320 	    2.0000 	   37.0000 	    5.3678 
    0.7248 	   17.9940 	    2.0000 	   37.0000 	    5.3988 
    0.5570 	   18.0600 	    2.0000 	   37.0000 	    5.4318 
    0.6638 	   18.1240 	    2.0000 	   37.0000 	    5.4638 
    0.6485 	   18.1980 	    2.0000 	   37.0000 	    5.5008 
    0.6332 	   18.2620 	    2.0000 	   37.0000 	    5.5328 
    0.6790 	   18.3240 	    2.0000 	   37.0000 	    5.5638 
    0.5264 	   18.3960 	    2.0000 	   37.0000 	    5.5998 
    0.6638 	   18.4580 	    2.0000 	   37.0000 	    5.6308 
    0.6332 	   18.5180 	    2.0000 	   37.0000 	    5.6608 
    0.7401 	   18.5820 	    2.0000 	   37.0000 	    5.6928 
    0.6943 	   18.6540 	    2.0000 	   37.0000 	    5.7288 
    0.6332 	   18.7180 	    2.0000 	   37.0000 	    5.7608 
    0.5722 	   18.7800 	    2.0000 	   37.0000 	    5.7918 
    0.8011 	   18.8400 	    2.0000 	   37.0000 	    5.8218 
    0.8316 	   18.9080 	    2.0000 	   37.0000 	    5.8558 
    0.7401 	   18.9740 	    2.0000 	   37.0000 	    5.8888 
    0.6943 	   19.0340 	    2.0000 	   37.0000 	    5.9188 
    0.3128 	   19.0980 	    2.0000 	   37.0000 	    5.9508 
    0.6790 	   19.1660 	    2.0000 	   37.0000 	    5.9848 
    0.4959 	   19.2280 	    2.0000 	   37.0000 	    6.0158 
    0.7706 	   19.2900 	    2.0000 	   37.0000 	    6.0468 
    0.5264 	   19.3520 	    2.0000 	   37.0000 	    6.0778 
    0.6332 	   19.4240 	    2.0000 	   37.0000 	    6.1138 
    0.5722 	   19.4880 	    2.0000 	   37.0000 	    6.1458 
    0.4807 	   19.5520 	    2.0000 	   37.0000 	    6.1778 
    0.5417 	   19.6140 	    2.0000 	   37.0000 	    6.2088 
    0.4349 	   19.6800 	    2.0000 	   37.0000 	    6.2418 
    0.6790 	   19.7400 	    2.0000 	   37.0000 	    6.2718 
    0.5722 	   19.8060 	    2.0000 	   37.0000 	    6.3048 
    0.7095 	   19.8680 	    2.0000 	   37.0000 	    6.3358 
    0.7858 	   19.9300 	    2.0000 	   37.0000 	    6.3668 
    0.5570 	   19.9960 	    2.0000 	   37.0000 	    6.3998 
    0.5722 	   20.0580 	    2.0000 	   37.0000 	    6.4308 
    0.5722 	   20.1200 	    2.0000 	   37.0000 	    6.4618 
    0.5112 	   20.1880 	    2.0000 	   37.0000 	    6.4958 
    0.6943 	   20.2520 	    2.0000 	   37.0000 	    6.5278 
    0.5570 	   20.3180 	    2.0000 	   37.0000 	    6.5608 
    0.6790 	   20.3820 	    2.0000 	   37.0000 	    6.5929 
    0.6485 	   20.4480 	    2.0000 	   37.0000 	    6.6259 
    0.6180 	   20.5120 	    2.0000 	   37.0000 	    6.6579 
    0.6332 	   20.5720 	    2.0000 	   37.0000 	    6.6879 
    0.6332 	   20.6360 	    2.0000 	   37.0000 	    6.7199 
    0.4196 	   20.6960 	    2.0000 	   37.0000 	    6.7499 
    0.4044 	   20.7600 	    2.0000 	   37.0000 	    6.7819 
    0.6943 	   20.8200 	    2.0000 	   37.0000 	    6.8119 
    0.6943 	   20.8840 	    2.0000 	   37.0000 	    6.8439 
    0.6180 	   20.9480 	    2.0000 	   37.0000 	    6.8759 
    0.7553 	   21.0060 	    2.0000 	   37.0000 	    6.9049 
    0.7858 	   21.0700 	    2.0000 	   37.0000 	    6.9369 
    0.6180 	   21.1400 	    2.0000 	   37.0000 	    6.9719 
    0.6790 	   21.2020 	    2.0000 	   37.0000 	    7.0029 
    0.6180 	   21.2640 	    2.0000 	   37.0000 	    7.0339 
    0.5264 	   21.3260 	    2.0000 	   37.0000 	    7.0649 
    0.7553 	   21.3880 	    2.0000 	   37.0000 	    7.0959 
    0.6332 	   21.4520 	    2.0000 	   37.0000 	    7.1279 
    0.5570 	   21.5140 	    2.0000 	   37.0000 	    7.1589 
    0.6790 	   21.5760 	    2.0000 	   37.0000 	    7.1899 
    0.7706 	   21.6420 	    2.0000 	   37.0000 	    7.2229 
    0.5722 	   21.7040 	    2.0000 	   37.0000 	    7.2539 
    0.5570 	   21.7660 	    2.0000 	   37.0000 	    7.2849 
    0.7248 	   21.8300 	    2.0000 	   37.0000 	    7.3169 
    0.7248 	   21.8960 	    2.0000 	   37.0000 	    7.3499 
    0.5722 	   21.9600 	    2.0000 	   37.0000 	    7.3819 
    0.6790 	   22.0240 	    2.0000 	   37.0000 	    7.4139 
    0.6485 	   22.0900 	    2.0000 	   37.0000 	    7.4469 
    0.7553 	   22.1600 	    2.0000 	   37.0000 	    7.4819 
    0.6485 	   22.2220 	    2.0000 	   37.0000 	    7.5129 
    0.7858 	   22.2860 	    2.0000 	   37.0000 	    7.5449 
    0.7706 	   22.3520 	    2.0000 	   37.0000 	    7.5779 
    0.7248 	   22.4120 	    2.0000 	   37.0000 	    7.6079 
    0.8164 	   22.4740 	    2.0000 	   37.0000 	    7.6389 
    0.6180 	   22.5360 	    2.0000 	   37.0000 	    7.6699 
    0.6485 	   22.6000 	    2.0000 	   37.0000 	    7.7019 
    0.1907 	   22.6700 	    2.0000 	   37.0000 	    7.7369 
    0.4196 	   22.7340 	    2.0000 	   37.0000 	    7.7689 
    0.6332 	   22.8020 	    2.0000 	   37.0000 	    7.8029 
    0.6638 	   22.8680 	    2.0000 	   37.0000 	    7.8359 
    0.6790 	   22.9340 	    2.0000 	   37.0000 	    7.8689 
    0.6943 	   22.9980 	    2.0000 	   37.0000 	    7.9009 
    0.5875 	   23.0640 	    2.0000 	   37.0000 	    7.9339 
    0.6027 	   23.1300 	    2.0000 	   37.0000 	    7.9669 
    0.8011 	   23.2020 	    2.0000 	   37.0000 	    8.0029 
    0.6485 	   23.2640 	    2.0000 	   37.0000 	    8.0339 
    0.4501 	   23.3300 	    2.0000 	   37.0000 	    8.0669 
    0.7401 	   23.3940 	    2.0000 	   37.0000 	    8.0989 
    0.6790 	   23.4600 	    2.0000 	   37.0000 	    8.1319 
    0.4044 	   23.5220 	    2.0000 	   37.0000 	    8.1629 
    0.6790 	   23.5840 	    2.0000 	   37.0000 	    8.1939 
    0.5722 	   23.6540 	    2.0000 	   37.0000 	    8.2289 
    0.3891 	   23.7180 	    2.0000 	   37.0000 	    8.2609 
    0.6485 	   23.7820 	    2.0000 	   37.0000 	    8.2929 
    0.5875 	   23.8460 	    2.0000 	   37.0000 	    8.3250 
    0.8164 	   23.9080 	    2.0000 	   37.0000 	    8.3560 
    0.6332 	   23.9720 	    2.0000 	   37.0000 	    8.3880 
    0.6790 	   24.0380 	    2.0000 	   37.0000 	    8.4210 
    0.6332 	   24.1020 	    2.0000 	   37.0000 	    8.4530 
    0.5417 	   24.1760 	    2.0000 	   37.0000 	    8.4900 
    0.7095 	   24.2360 	    2.0000 	   37.0000 	    8.5200 
    0.8621 	   24.3000 	    2.0000 	   37.0000 	    8.5520 
    0.5722 	   24.3660 	    2.0000 	   37.0000 	    8.5850 
    0.7095 	   24.4300 	    2.0000 	   37.0000 	    8.6170 
    0.8469 	   24.4920 	    2.0000 	   37.0000 	    8.6480 
