Thayer School of Engineering        Instron 4442 Mechanical Testing System
7/9/2018 2:31:15 AM

  Force (N)	Extension (mm)	Not Used	Not Used	Not Used	     Hour	    Minute	    Second
    0.2670 	    2.0660 	    2.0000 	   31.0000 	   43.3074 
    0.2060 	    2.1140 	    2.0000 	   31.0000 	   43.3314 
    0.4196 	    2.2420 	    2.0000 	   31.0000 	   43.3954 
    0.4654 	    2.3600 	    2.0000 	   31.0000 	   43.4544 
    0.4349 	    2.4740 	    2.0000 	   31.0000 	   43.5114 
    0.1907 	    2.5800 	    2.0000 	   31.0000 	   43.5644 
    0.4654 	    2.6820 	    2.0000 	   31.0000 	   43.6154 
    0.3738 	    2.7880 	    2.0000 	   31.0000 	   43.6684 
    0.4349 	    2.8880 	    2.0000 	   31.0000 	   43.7184 
    0.5417 	    2.9860 	    2.0000 	   31.0000 	   43.7674 
    0.4807 	    3.0400 	    2.0000 	   31.0000 	   43.7944 
    0.4349 	    3.1460 	    2.0000 	   31.0000 	   43.8474 
    0.3586 	    3.2020 	    2.0000 	   31.0000 	   43.8754 
    0.3586 	    3.3140 	    2.0000 	   31.0000 	   43.9314 
    0.4959 	    3.4200 	    2.0000 	   31.0000 	   43.9844 
    0.4501 	    3.4840 	    2.0000 	   31.0000 	   44.0164 
    0.4959 	    3.5960 	    2.0000 	   31.0000 	   44.0724 
    0.4959 	    3.6960 	    2.0000 	   31.0000 	   44.1224 
    0.3891 	    3.8040 	    2.0000 	   31.0000 	   44.1764 
    0.4807 	    3.8620 	    2.0000 	   31.0000 	   44.2054 
    0.3891 	    3.9660 	    2.0000 	   31.0000 	   44.2574 
    0.4196 	    4.0680 	    2.0000 	   31.0000 	   44.3084 
    0.3281 	    4.1680 	    2.0000 	   31.0000 	   44.3584 
    0.4959 	    4.2300 	    2.0000 	   31.0000 	   44.3894 
    0.4501 	    4.3420 	    2.0000 	   31.0000 	   44.4454 
    0.5570 	    4.4520 	    2.0000 	   31.0000 	   44.5004 
    0.4501 	    4.5560 	    2.0000 	   31.0000 	   44.5524 
    0.3128 	    4.6660 	    2.0000 	   31.0000 	   44.6074 
    0.4501 	    4.7720 	    2.0000 	   31.0000 	   44.6604 
    0.5264 	    4.8780 	    2.0000 	   31.0000 	   44.7134 
    0.4196 	    4.9820 	    2.0000 	   31.0000 	   44.7654 
    0.4501 	    5.0980 	    2.0000 	   31.0000 	   44.8234 
    0.5875 	    5.2080 	    2.0000 	   31.0000 	   44.8784 
    0.3433 	    5.3160 	    2.0000 	   31.0000 	   44.9325 
    0.3891 	    5.4220 	    2.0000 	   31.0000 	   44.9855 
    0.1907 	    5.5380 	    2.0000 	   31.0000 	   45.0435 
    0.1755 	    5.6500 	    2.0000 	   31.0000 	   45.0995 
    0.5417 	    5.7560 	    2.0000 	   31.0000 	   45.1525 
    0.4196 	    5.8620 	    2.0000 	   31.0000 	   45.2055 
    0.4196 	    5.9620 	    2.0000 	   31.0000 	   45.2555 
    0.3738 	    6.0660 	    2.0000 	   31.0000 	   45.3075 
    0.5417 	    6.1300 	    2.0000 	   31.0000 	   45.3395 
    0.2213 	    6.1920 	    2.0000 	   31.0000 	   45.3705 
    0.3738 	    6.3120 	    2.0000 	   31.0000 	   45.4305 
    0.4654 	    6.4220 	    2.0000 	   31.0000 	   45.4855 
    0.5875 	    6.4880 	    2.0000 	   31.0000 	   45.5185 
    0.3738 	    6.5540 	    2.0000 	   31.0000 	   45.5515 
    0.4196 	    6.6140 	    2.0000 	   31.0000 	   45.5815 
    0.4654 	    6.6760 	    2.0000 	   31.0000 	   45.6125 
    0.5112 	    6.7440 	    2.0000 	   31.0000 	   45.6465 
    0.5722 	    6.8060 	    2.0000 	   31.0000 	   45.6775 
    0.3738 	    6.8720 	    2.0000 	   31.0000 	   45.7105 
    0.5112 	    6.9400 	    2.0000 	   31.0000 	   45.7435 
    0.4959 	    7.0080 	    2.0000 	   31.0000 	   45.7785 
    0.2365 	    7.0720 	    2.0000 	   31.0000 	   45.8105 
    0.3891 	    7.1360 	    2.0000 	   31.0000 	   45.8425 
    0.4196 	    7.2060 	    2.0000 	   31.0000 	   45.8775 
    0.4807 	    7.2720 	    2.0000 	   31.0000 	   45.9105 
    0.3433 	    7.3420 	    2.0000 	   31.0000 	   45.9455 
    0.5112 	    7.4060 	    2.0000 	   31.0000 	   45.9775 
    0.5570 	    7.4720 	    2.0000 	   31.0000 	   46.0105 
    0.5722 	    7.5320 	    2.0000 	   31.0000 	   46.0405 
    0.4349 	    7.5980 	    2.0000 	   31.0000 	   46.0735 
    0.2670 	    7.6640 	    2.0000 	   31.0000 	   46.1065 
    0.5722 	    7.7300 	    2.0000 	   31.0000 	   46.1395 
    0.5875 	    7.7980 	    2.0000 	   31.0000 	   46.1735 
    0.4196 	    7.8660 	    2.0000 	   31.0000 	   46.2075 
    0.2670 	    7.9340 	    2.0000 	   31.0000 	   46.2415 
    0.4654 	    8.0000 	    2.0000 	   31.0000 	   46.2745 
    0.3738 	    8.0740 	    2.0000 	   31.0000 	   46.3115 
    0.5264 	    8.1360 	    2.0000 	   31.0000 	   46.3425 
    0.5570 	    8.2000 	    2.0000 	   31.0000 	   46.3745 
    0.3738 	    8.2660 	    2.0000 	   31.0000 	   46.4075 
    0.5570 	    8.3340 	    2.0000 	   31.0000 	   46.4415 
    0.4349 	    8.4020 	    2.0000 	   31.0000 	   46.4755 
    0.4044 	    8.4660 	    2.0000 	   31.0000 	   46.5075 
    0.6332 	    8.5300 	    2.0000 	   31.0000 	   46.5395 
    0.2670 	    8.5900 	    2.0000 	   31.0000 	   46.5695 
    0.2823 	    8.7060 	    2.0000 	   31.0000 	   46.6275 
    0.3433 	    8.7680 	    2.0000 	   31.0000 	   46.6586 
    0.5264 	    8.8320 	    2.0000 	   31.0000 	   46.6906 
    0.4959 	    8.8920 	    2.0000 	   31.0000 	   46.7206 
    0.5875 	    8.9580 	    2.0000 	   31.0000 	   46.7536 
    0.4501 	    9.0180 	    2.0000 	   31.0000 	   46.7836 
    0.4959 	    9.0860 	    2.0000 	   31.0000 	   46.8176 
    0.6027 	    9.1520 	    2.0000 	   31.0000 	   46.8506 
    0.3738 	    9.2120 	    2.0000 	   31.0000 	   46.8806 
    0.1907 	    9.2740 	    2.0000 	   31.0000 	   46.9116 
    0.4654 	    9.3360 	    2.0000 	   31.0000 	   46.9426 
    0.4501 	    9.4020 	    2.0000 	   31.0000 	   46.9756 
    0.4959 	    9.4680 	    2.0000 	   31.0000 	   47.0086 
    0.3891 	    9.5320 	    2.0000 	   31.0000 	   47.0406 
    0.3891 	    9.5920 	    2.0000 	   31.0000 	   47.0706 
    0.3891 	    9.6580 	    2.0000 	   31.0000 	   47.1036 
    0.4807 	    9.7200 	    2.0000 	   31.0000 	   47.1346 
    0.4196 	    9.7880 	    2.0000 	   31.0000 	   47.1686 
    0.4501 	    9.8540 	    2.0000 	   31.0000 	   47.2016 
    0.2060 	    9.9140 	    2.0000 	   31.0000 	   47.2316 
    0.5112 	    9.9820 	    2.0000 	   31.0000 	   47.2656 
    0.3586 	   10.0500 	    2.0000 	   31.0000 	   47.2996 
    0.3738 	   10.1100 	    2.0000 	   31.0000 	   47.3296 
    0.4196 	   10.1780 	    2.0000 	   31.0000 	   47.3636 
    0.2213 	   10.2440 	    2.0000 	   31.0000 	   47.3966 
    0.4196 	   10.2980 	    2.0000 	   31.0000 	   47.4236 
    0.4959 	   10.3620 	    2.0000 	   31.0000 	   47.4556 
    0.4349 	   10.4180 	    2.0000 	   31.0000 	   47.4836 
    0.4044 	   10.4740 	    2.0000 	   31.0000 	   47.5116 
    0.4959 	   10.5400 	    2.0000 	   31.0000 	   47.5446 
    0.3586 	   10.6020 	    2.0000 	   31.0000 	   47.5756 
    0.5112 	   10.6620 	    2.0000 	   31.0000 	   47.6056 
    0.4196 	   10.7280 	    2.0000 	   31.0000 	   47.6386 
    0.4501 	   10.7900 	    2.0000 	   31.0000 	   47.6696 
    0.5264 	   10.8460 	    2.0000 	   31.0000 	   47.6976 
    0.4349 	   10.9060 	    2.0000 	   31.0000 	   47.7276 
    0.5112 	   10.9740 	    2.0000 	   31.0000 	   47.7616 
    0.5417 	   11.0360 	    2.0000 	   31.0000 	   47.7926 
    0.4959 	   11.0960 	    2.0000 	   31.0000 	   47.8226 
    0.1907 	   11.1640 	    2.0000 	   31.0000 	   47.8566 
    0.6027 	   11.2260 	    2.0000 	   31.0000 	   47.8876 
    0.4654 	   11.2880 	    2.0000 	   31.0000 	   47.9186 
    0.5722 	   11.3540 	    2.0000 	   31.0000 	   47.9516 
    0.4044 	   11.4140 	    2.0000 	   31.0000 	   47.9816 
    0.6485 	   11.4760 	    2.0000 	   31.0000 	   48.0126 
    0.4196 	   11.5420 	    2.0000 	   31.0000 	   48.0456 
    0.1450 	   11.6000 	    2.0000 	   31.0000 	   48.0746 
    0.6638 	   11.6600 	    2.0000 	   31.0000 	   48.1046 
    0.4501 	   11.7280 	    2.0000 	   31.0000 	   48.1386 
    0.5570 	   11.7900 	    2.0000 	   31.0000 	   48.1696 
    0.5112 	   11.8520 	    2.0000 	   31.0000 	   48.2006 
    0.3281 	   11.9080 	    2.0000 	   31.0000 	   48.2286 
    0.5875 	   11.9720 	    2.0000 	   31.0000 	   48.2606 
    0.4959 	   12.0360 	    2.0000 	   31.0000 	   48.2926 
    0.4959 	   12.1000 	    2.0000 	   31.0000 	   48.3246 
    0.5417 	   12.1720 	    2.0000 	   31.0000 	   48.3606 
    0.3738 	   12.2300 	    2.0000 	   31.0000 	   48.3897 
    0.4654 	   12.2900 	    2.0000 	   31.0000 	   48.4197 
    0.4654 	   12.3580 	    2.0000 	   31.0000 	   48.4537 
    0.4654 	   12.4200 	    2.0000 	   31.0000 	   48.4847 
    0.3738 	   12.4820 	    2.0000 	   31.0000 	   48.5157 
    0.3738 	   12.5520 	    2.0000 	   31.0000 	   48.5507 
    0.5264 	   12.6120 	    2.0000 	   31.0000 	   48.5807 
    0.5264 	   12.6740 	    2.0000 	   31.0000 	   48.6117 
    0.4044 	   12.7680 	    2.0000 	   31.0000 	   48.6587 
    0.3738 	   12.8260 	    2.0000 	   31.0000 	   48.6877 
    0.3738 	   12.8880 	    2.0000 	   31.0000 	   48.7187 
    0.5570 	   12.9480 	    2.0000 	   31.0000 	   48.7487 
    0.6638 	   13.0100 	    2.0000 	   31.0000 	   48.7797 
    0.6332 	   13.0700 	    2.0000 	   31.0000 	   48.8097 
    0.5264 	   13.1420 	    2.0000 	   31.0000 	   48.8457 
    0.4807 	   13.2040 	    2.0000 	   31.0000 	   48.8767 
    0.4654 	   13.2660 	    2.0000 	   31.0000 	   48.9077 
    0.6332 	   13.3340 	    2.0000 	   31.0000 	   48.9417 
    0.3128 	   13.3920 	    2.0000 	   31.0000 	   48.9707 
    0.5722 	   13.4540 	    2.0000 	   31.0000 	   49.0017 
    0.5264 	   13.5180 	    2.0000 	   31.0000 	   49.0337 
    0.5112 	   13.5820 	    2.0000 	   31.0000 	   49.0657 
    0.4044 	   13.6460 	    2.0000 	   31.0000 	   49.0977 
    0.4349 	   13.7060 	    2.0000 	   31.0000 	   49.1277 
    0.5570 	   13.7780 	    2.0000 	   31.0000 	   49.1637 
    0.4807 	   13.8420 	    2.0000 	   31.0000 	   49.1957 
    0.4044 	   13.9040 	    2.0000 	   31.0000 	   49.2267 
    0.6027 	   13.9740 	    2.0000 	   31.0000 	   49.2617 
    0.5875 	   14.0340 	    2.0000 	   31.0000 	   49.2917 
    0.5112 	   14.0960 	    2.0000 	   31.0000 	   49.3227 
    0.4654 	   14.1600 	    2.0000 	   31.0000 	   49.3547 
    0.5264 	   14.2240 	    2.0000 	   31.0000 	   49.3867 
    0.4196 	   14.2840 	    2.0000 	   31.0000 	   49.4167 
    0.5112 	   14.3520 	    2.0000 	   31.0000 	   49.4507 
    0.5722 	   14.4140 	    2.0000 	   31.0000 	   49.4817 
    0.4807 	   14.4780 	    2.0000 	   31.0000 	   49.5137 
    0.4349 	   14.5460 	    2.0000 	   31.0000 	   49.5477 
    0.4349 	   14.6080 	    2.0000 	   31.0000 	   49.5787 
    0.5875 	   14.6780 	    2.0000 	   31.0000 	   49.6137 
    0.4501 	   14.7420 	    2.0000 	   31.0000 	   49.6447 
    0.6485 	   14.8040 	    2.0000 	   31.0000 	   49.6767 
    0.5875 	   14.8680 	    2.0000 	   31.0000 	   49.7087 
    0.4807 	   14.9340 	    2.0000 	   31.0000 	   49.7417 
    0.3433 	   15.0020 	    2.0000 	   31.0000 	   49.7757 
    0.5570 	   15.0660 	    2.0000 	   31.0000 	   49.8077 
    0.4196 	   15.1340 	    2.0000 	   31.0000 	   49.8417 
    0.3738 	   15.1960 	    2.0000 	   31.0000 	   49.8727 
    0.6180 	   15.2580 	    2.0000 	   31.0000 	   49.9037 
    0.5722 	   15.3180 	    2.0000 	   31.0000 	   49.9337 
    0.5417 	   15.3860 	    2.0000 	   31.0000 	   49.9677 
    0.5112 	   15.4460 	    2.0000 	   31.0000 	   49.9977 
    0.4654 	   15.5080 	    2.0000 	   31.0000 	   50.0287 
    0.5875 	   15.5740 	    2.0000 	   31.0000 	   50.0617 
    0.5112 	   15.6400 	    2.0000 	   31.0000 	   50.0947 
    0.5722 	   15.7020 	    2.0000 	   31.0000 	   50.1258 
    0.6180 	   15.7660 	    2.0000 	   31.0000 	   50.1578 
    0.5112 	   15.8280 	    2.0000 	   31.0000 	   50.1888 
    0.6332 	   15.8920 	    2.0000 	   31.0000 	   50.2198 
    0.5417 	   15.9620 	    2.0000 	   31.0000 	   50.2558 
    0.5570 	   16.0260 	    2.0000 	   31.0000 	   50.2878 
    0.4501 	   16.0900 	    2.0000 	   31.0000 	   50.3198 
    0.5570 	   16.1620 	    2.0000 	   31.0000 	   50.3558 
    0.5264 	   16.2260 	    2.0000 	   31.0000 	   50.3878 
    0.5417 	   16.2880 	    2.0000 	   31.0000 	   50.4188 
    0.3738 	   16.3580 	    2.0000 	   31.0000 	   50.4538 
    0.5112 	   16.4180 	    2.0000 	   31.0000 	   50.4838 
    0.4349 	   16.4800 	    2.0000 	   31.0000 	   50.5148 
    0.5570 	   16.5500 	    2.0000 	   31.0000 	   50.5498 
    0.5112 	   16.6140 	    2.0000 	   31.0000 	   50.5818 
    0.5417 	   16.6760 	    2.0000 	   31.0000 	   50.6128 
    0.4501 	   16.7680 	    2.0000 	   31.0000 	   50.6588 
    0.5570 	   16.8320 	    2.0000 	   31.0000 	   50.6908 
    0.5875 	   16.8960 	    2.0000 	   31.0000 	   50.7228 
    0.5264 	   16.9660 	    2.0000 	   31.0000 	   50.7578 
    0.4196 	   17.0280 	    2.0000 	   31.0000 	   50.7888 
    0.6027 	   17.0920 	    2.0000 	   31.0000 	   50.8208 
    0.5417 	   17.1620 	    2.0000 	   31.0000 	   50.8558 
    0.5417 	   17.2260 	    2.0000 	   31.0000 	   50.8878 
    0.4196 	   17.2860 	    2.0000 	   31.0000 	   50.9178 
    0.5264 	   17.3480 	    2.0000 	   31.0000 	   50.9488 
    0.5417 	   17.4160 	    2.0000 	   31.0000 	   50.9828 
    0.4807 	   17.4800 	    2.0000 	   31.0000 	   51.0148 
    0.4959 	   17.5420 	    2.0000 	   31.0000 	   51.0458 
    0.5722 	   17.6040 	    2.0000 	   31.0000 	   51.0768 
    0.3891 	   17.6760 	    2.0000 	   31.0000 	   51.1128 
    0.4044 	   17.7360 	    2.0000 	   31.0000 	   51.1428 
    0.6485 	   17.7960 	    2.0000 	   31.0000 	   51.1728 
    0.6180 	   17.8600 	    2.0000 	   31.0000 	   51.2048 
    0.6332 	   17.9280 	    2.0000 	   31.0000 	   51.2388 
    0.4501 	   17.9900 	    2.0000 	   31.0000 	   51.2698 
    0.5417 	   18.0480 	    2.0000 	   31.0000 	   51.2988 
    0.5264 	   18.1100 	    2.0000 	   31.0000 	   51.3298 
    0.5570 	   18.1800 	    2.0000 	   31.0000 	   51.3648 
    0.4807 	   18.2400 	    2.0000 	   31.0000 	   51.3948 
    0.6332 	   18.3020 	    2.0000 	   31.0000 	   51.4258 
    0.4959 	   18.3680 	    2.0000 	   31.0000 	   51.4588 
    0.3891 	   18.4380 	    2.0000 	   31.0000 	   51.4938 
    0.5875 	   18.5000 	    2.0000 	   31.0000 	   51.5248 
    0.6638 	   18.5580 	    2.0000 	   31.0000 	   51.5538 
    0.6485 	   18.6220 	    2.0000 	   31.0000 	   51.5858 
    0.6790 	   18.6900 	    2.0000 	   31.0000 	   51.6198 
    0.5570 	   18.7520 	    2.0000 	   31.0000 	   51.6508 
    0.5417 	   18.8120 	    2.0000 	   31.0000 	   51.6808 
    0.4959 	   18.8820 	    2.0000 	   31.0000 	   51.7158 
    0.4807 	   18.9480 	    2.0000 	   31.0000 	   51.7488 
    0.5570 	   19.0120 	    2.0000 	   31.0000 	   51.7808 
    0.4959 	   19.0780 	    2.0000 	   31.0000 	   51.8138 
    0.4807 	   19.1500 	    2.0000 	   31.0000 	   51.8498 
    0.4959 	   19.2100 	    2.0000 	   31.0000 	   51.8799 
    0.5264 	   19.2720 	    2.0000 	   31.0000 	   51.9109 
    0.1602 	   19.3380 	    2.0000 	   31.0000 	   51.9439 
    0.6180 	   19.4080 	    2.0000 	   31.0000 	   51.9789 
    0.4044 	   19.4720 	    2.0000 	   31.0000 	   52.0109 
    0.5417 	   19.5380 	    2.0000 	   31.0000 	   52.0439 
    0.5264 	   19.6020 	    2.0000 	   31.0000 	   52.0759 
    0.4349 	   19.6720 	    2.0000 	   31.0000 	   52.1109 
    0.5112 	   19.7380 	    2.0000 	   31.0000 	   52.1439 
    0.4654 	   19.8020 	    2.0000 	   31.0000 	   52.1759 
    0.5264 	   19.8640 	    2.0000 	   31.0000 	   52.2069 
    0.5570 	   19.9280 	    2.0000 	   31.0000 	   52.2389 
    0.5570 	   19.9920 	    2.0000 	   31.0000 	   52.2709 
    0.5264 	   20.0540 	    2.0000 	   31.0000 	   52.3019 
    0.3433 	   20.1160 	    2.0000 	   31.0000 	   52.3329 
    0.4807 	   20.1860 	    2.0000 	   31.0000 	   52.3679 
    0.7401 	   20.2520 	    2.0000 	   31.0000 	   52.4009 
    0.6180 	   20.3160 	    2.0000 	   31.0000 	   52.4329 
    0.5722 	   20.3840 	    2.0000 	   31.0000 	   52.4669 
    0.2518 	   20.4480 	    2.0000 	   31.0000 	   52.4989 
    0.5570 	   20.5080 	    2.0000 	   31.0000 	   52.5289 
    0.3281 	   20.5700 	    2.0000 	   31.0000 	   52.5599 
    0.5875 	   20.6400 	    2.0000 	   31.0000 	   52.5949 
    0.5875 	   20.7020 	    2.0000 	   31.0000 	   52.6259 
    0.4501 	   20.7680 	    2.0000 	   31.0000 	   52.6589 
    0.4959 	   20.8320 	    2.0000 	   31.0000 	   52.6909 
    0.3128 	   20.8920 	    2.0000 	   31.0000 	   52.7209 
    0.4501 	   20.9560 	    2.0000 	   31.0000 	   52.7529 
    0.5875 	   21.0200 	    2.0000 	   31.0000 	   52.7849 
    0.4501 	   21.0820 	    2.0000 	   31.0000 	   52.8159 
    0.4196 	   21.1520 	    2.0000 	   31.0000 	   52.8509 
    0.5570 	   21.2140 	    2.0000 	   31.0000 	   52.8819 
    0.4501 	   21.2800 	    2.0000 	   31.0000 	   52.9149 
    0.5264 	   21.3420 	    2.0000 	   31.0000 	   52.9459 
    0.5875 	   21.4140 	    2.0000 	   31.0000 	   52.9819 
    0.4959 	   21.4780 	    2.0000 	   31.0000 	   53.0139 
    0.5264 	   21.5440 	    2.0000 	   31.0000 	   53.0469 
    0.4807 	   21.6060 	    2.0000 	   31.0000 	   53.0779 
    0.7706 	   21.6760 	    2.0000 	   31.0000 	   53.1129 
    0.5722 	   21.7380 	    2.0000 	   31.0000 	   53.1439 
    0.5112 	   21.8040 	    2.0000 	   31.0000 	   53.1769 
    0.6485 	   21.8680 	    2.0000 	   31.0000 	   53.2089 
    0.5722 	   21.9300 	    2.0000 	   31.0000 	   53.2399 
    0.4654 	   21.9940 	    2.0000 	   31.0000 	   53.2719 
    0.5875 	   22.0560 	    2.0000 	   31.0000 	   53.3029 
    0.4044 	   22.1240 	    2.0000 	   31.0000 	   53.3369 
    0.6943 	   22.1920 	    2.0000 	   31.0000 	   53.3709 
    0.6027 	   22.2540 	    2.0000 	   31.0000 	   53.4019 
    0.6638 	   22.3120 	    2.0000 	   31.0000 	   53.4309 
    0.7248 	   22.3760 	    2.0000 	   31.0000 	   53.4629 
    0.5875 	   22.4420 	    2.0000 	   31.0000 	   53.4959 
    0.5570 	   22.5060 	    2.0000 	   31.0000 	   53.5279 
    0.5570 	   22.5700 	    2.0000 	   31.0000 	   53.5599 
    0.3586 	   22.6380 	    2.0000 	   31.0000 	   53.5939 
    0.5264 	   22.7060 	    2.0000 	   31.0000 	   53.6280 
    0.6485 	   22.7720 	    2.0000 	   31.0000 	   53.6610 
    0.6332 	   22.8320 	    2.0000 	   31.0000 	   53.6910 
    0.5112 	   22.8980 	    2.0000 	   31.0000 	   53.7240 
    0.2823 	   22.9620 	    2.0000 	   31.0000 	   53.7560 
    0.7248 	   23.0220 	    2.0000 	   31.0000 	   53.7860 
    0.4654 	   23.0860 	    2.0000 	   31.0000 	   53.8180 
    0.5417 	   23.1580 	    2.0000 	   31.0000 	   53.8540 
    0.6332 	   23.2240 	    2.0000 	   31.0000 	   53.8870 
    0.2518 	   23.2880 	    2.0000 	   31.0000 	   53.9190 
    0.5722 	   23.3540 	    2.0000 	   31.0000 	   53.9520 
    0.5570 	   23.4200 	    2.0000 	   31.0000 	   53.9850 
    0.4501 	   23.4860 	    2.0000 	   31.0000 	   54.0180 
    0.5264 	   23.5520 	    2.0000 	   31.0000 	   54.0510 
    0.4807 	   23.6140 	    2.0000 	   31.0000 	   54.0820 
    0.4501 	   23.6840 	    2.0000 	   31.0000 	   54.1170 
    0.6027 	   23.7480 	    2.0000 	   31.0000 	   54.1490 
    0.6790 	   23.8140 	    2.0000 	   31.0000 	   54.1820 
    0.4501 	   23.8780 	    2.0000 	   31.0000 	   54.2140 
    0.4349 	   23.9420 	    2.0000 	   31.0000 	   54.2460 
    0.5875 	   24.0100 	    2.0000 	   31.0000 	   54.2800 
    0.6943 	   24.0720 	    2.0000 	   31.0000 	   54.3110 
    0.6180 	   24.1400 	    2.0000 	   31.0000 	   54.3450 
    0.5722 	   24.2020 	    2.0000 	   31.0000 	   54.3760 
    0.6638 	   24.2680 	    2.0000 	   31.0000 	   54.4090 
    0.5112 	   24.3320 	    2.0000 	   31.0000 	   54.4410 
    0.6332 	   24.3960 	    2.0000 	   31.0000 	   54.4730 
    0.4349 	   24.4620 	    2.0000 	   31.0000 	   54.5060 
