Thayer School of Engineering        Instron 4442 Mechanical Testing System
7/9/2018 3:25:43 AM

  Force (N)	Extension (mm)	Not Used	Not Used	Not Used	     Hour	    Minute	    Second
    1.2284 	    2.0340 	    3.0000 	   26.0000 	   12.7554 
    1.3046 	    2.0980 	    3.0000 	   26.0000 	   12.7884 
    1.2894 	    2.2400 	    3.0000 	   26.0000 	   12.8594 
    1.2894 	    2.3560 	    3.0000 	   26.0000 	   12.9174 
    1.3809 	    2.4160 	    3.0000 	   26.0000 	   12.9474 
    1.2894 	    2.4740 	    3.0000 	   26.0000 	   12.9764 
    1.3504 	    2.5900 	    3.0000 	   26.0000 	   13.0344 
    1.3352 	    2.6980 	    3.0000 	   26.0000 	   13.0884 
    1.4267 	    2.8000 	    3.0000 	   26.0000 	   13.1394 
    1.0452 	    2.8660 	    3.0000 	   26.0000 	   13.1724 
    1.3657 	    2.9780 	    3.0000 	   26.0000 	   13.2284 
    1.3504 	    3.0860 	    3.0000 	   26.0000 	   13.2824 
    1.4572 	    3.1880 	    3.0000 	   26.0000 	   13.3334 
    1.4420 	    3.2880 	    3.0000 	   26.0000 	   13.3834 
    1.3809 	    3.3900 	    3.0000 	   26.0000 	   13.4344 
    1.1521 	    3.4880 	    3.0000 	   26.0000 	   13.4834 
    1.5183 	    3.5460 	    3.0000 	   26.0000 	   13.5124 
    1.6403 	    3.6600 	    3.0000 	   26.0000 	   13.5694 
    1.4725 	    3.7640 	    3.0000 	   26.0000 	   13.6214 
    1.5183 	    3.8760 	    3.0000 	   26.0000 	   13.6774 
    1.4267 	    3.9840 	    3.0000 	   26.0000 	   13.7314 
    1.5030 	    4.0520 	    3.0000 	   26.0000 	   13.7654 
    1.6861 	    4.1680 	    3.0000 	   26.0000 	   13.8234 
    1.6251 	    4.2720 	    3.0000 	   26.0000 	   13.8754 
    1.6556 	    4.3700 	    3.0000 	   26.0000 	   13.9244 
    1.6251 	    4.4800 	    3.0000 	   26.0000 	   13.9794 
    1.6251 	    4.5920 	    3.0000 	   26.0000 	   14.0354 
    1.6251 	    4.6900 	    3.0000 	   26.0000 	   14.0844 
    1.7777 	    4.7480 	    3.0000 	   26.0000 	   14.1134 
    1.5946 	    4.8040 	    3.0000 	   26.0000 	   14.1414 
    1.6709 	    4.9140 	    3.0000 	   26.0000 	   14.1964 
    1.5793 	    5.0160 	    3.0000 	   26.0000 	   14.2474 
    1.8082 	    5.1240 	    3.0000 	   26.0000 	   14.3015 
    1.7319 	    5.2280 	    3.0000 	   26.0000 	   14.3535 
    1.6251 	    5.3360 	    3.0000 	   26.0000 	   14.4075 
    1.8235 	    5.4400 	    3.0000 	   26.0000 	   14.4595 
    1.8692 	    5.5420 	    3.0000 	   26.0000 	   14.5105 
    1.7014 	    5.6440 	    3.0000 	   26.0000 	   14.5615 
    1.7624 	    5.7080 	    3.0000 	   26.0000 	   14.5935 
    1.8540 	    5.8200 	    3.0000 	   26.0000 	   14.6495 
    1.7166 	    5.9240 	    3.0000 	   26.0000 	   14.7015 
    1.8997 	    6.0440 	    3.0000 	   26.0000 	   14.7615 
    1.8387 	    6.1460 	    3.0000 	   26.0000 	   14.8125 
    1.8082 	    6.2600 	    3.0000 	   26.0000 	   14.8695 
    1.8082 	    6.3180 	    3.0000 	   26.0000 	   14.8985 
    1.8082 	    6.3700 	    3.0000 	   26.0000 	   14.9245 
    1.5335 	    6.4280 	    3.0000 	   26.0000 	   14.9535 
    1.8540 	    6.4920 	    3.0000 	   26.0000 	   14.9855 
    1.9913 	    6.6040 	    3.0000 	   26.0000 	   15.0415 
    1.5946 	    6.6680 	    3.0000 	   26.0000 	   15.0735 
    1.9760 	    6.7860 	    3.0000 	   26.0000 	   15.1325 
    1.7777 	    6.8500 	    3.0000 	   26.0000 	   15.1645 
    1.8692 	    6.9160 	    3.0000 	   26.0000 	   15.1975 
    1.8997 	    6.9840 	    3.0000 	   26.0000 	   15.2315 
    2.0066 	    7.0520 	    3.0000 	   26.0000 	   15.2655 
    1.8235 	    7.1160 	    3.0000 	   26.0000 	   15.2975 
    1.9455 	    7.2320 	    3.0000 	   26.0000 	   15.3555 
    2.0066 	    7.3020 	    3.0000 	   26.0000 	   15.3905 
    1.9608 	    7.3640 	    3.0000 	   26.0000 	   15.4215 
    2.0371 	    7.4260 	    3.0000 	   26.0000 	   15.4525 
    1.8845 	    7.4860 	    3.0000 	   26.0000 	   15.4825 
    1.7777 	    7.5500 	    3.0000 	   26.0000 	   15.5145 
    1.9455 	    7.6120 	    3.0000 	   26.0000 	   15.5455 
    1.8845 	    7.6760 	    3.0000 	   26.0000 	   15.5775 
    1.9150 	    7.7440 	    3.0000 	   26.0000 	   15.6115 
    2.0676 	    7.8120 	    3.0000 	   26.0000 	   15.6455 
    2.0829 	    7.8800 	    3.0000 	   26.0000 	   15.6795 
    1.9150 	    7.9420 	    3.0000 	   26.0000 	   15.7105 
    2.0523 	    8.0040 	    3.0000 	   26.0000 	   15.7415 
    1.9760 	    8.0640 	    3.0000 	   26.0000 	   15.7715 
    2.1134 	    8.1240 	    3.0000 	   26.0000 	   15.8015 
    2.0829 	    8.1860 	    3.0000 	   26.0000 	   15.8325 
    2.0066 	    8.3000 	    3.0000 	   26.0000 	   15.8895 
    2.0829 	    8.3600 	    3.0000 	   26.0000 	   15.9195 
    2.0066 	    8.4160 	    3.0000 	   26.0000 	   15.9475 
    2.2049 	    8.4700 	    3.0000 	   26.0000 	   15.9745 
    2.0523 	    8.5380 	    3.0000 	   26.0000 	   16.0085 
    2.0829 	    8.6020 	    3.0000 	   26.0000 	   16.0406 
    2.0829 	    8.6640 	    3.0000 	   26.0000 	   16.0716 
    2.2202 	    8.7260 	    3.0000 	   26.0000 	   16.1026 
    2.0676 	    8.7840 	    3.0000 	   26.0000 	   16.1316 
    2.1286 	    8.8480 	    3.0000 	   26.0000 	   16.1636 
    2.2202 	    8.9060 	    3.0000 	   26.0000 	   16.1926 
    2.2965 	    8.9740 	    3.0000 	   26.0000 	   16.2266 
    2.2202 	    9.0420 	    3.0000 	   26.0000 	   16.2606 
    2.2507 	    9.1020 	    3.0000 	   26.0000 	   16.2906 
    2.2507 	    9.1660 	    3.0000 	   26.0000 	   16.3226 
    2.2202 	    9.2280 	    3.0000 	   26.0000 	   16.3536 
    2.0829 	    9.2860 	    3.0000 	   26.0000 	   16.3826 
    2.2049 	    9.3520 	    3.0000 	   26.0000 	   16.4156 
    1.8845 	    9.4060 	    3.0000 	   26.0000 	   16.4426 
    2.2965 	    9.4720 	    3.0000 	   26.0000 	   16.4756 
    2.0523 	    9.5380 	    3.0000 	   26.0000 	   16.5086 
    2.1286 	    9.5940 	    3.0000 	   26.0000 	   16.5366 
    2.2202 	    9.6560 	    3.0000 	   26.0000 	   16.5676 
    2.2660 	    9.7120 	    3.0000 	   26.0000 	   16.5956 
    2.2812 	    9.7760 	    3.0000 	   26.0000 	   16.6276 
    2.2660 	    9.8460 	    3.0000 	   26.0000 	   16.6626 
    2.2354 	    9.9060 	    3.0000 	   26.0000 	   16.6926 
    2.1592 	    9.9680 	    3.0000 	   26.0000 	   16.7236 
    2.2812 	   10.0280 	    3.0000 	   26.0000 	   16.7536 
    2.2354 	   10.0800 	    3.0000 	   26.0000 	   16.7796 
    2.2049 	   10.1380 	    3.0000 	   26.0000 	   16.8086 
    2.2812 	   10.1920 	    3.0000 	   26.0000 	   16.8356 
    2.2812 	   10.2480 	    3.0000 	   26.0000 	   16.8636 
    2.1744 	   10.3000 	    3.0000 	   26.0000 	   16.8896 
    2.2660 	   10.3520 	    3.0000 	   26.0000 	   16.9156 
    2.3270 	   10.4040 	    3.0000 	   26.0000 	   16.9416 
    2.2965 	   10.4600 	    3.0000 	   26.0000 	   16.9696 
    2.3270 	   10.5780 	    3.0000 	   26.0000 	   17.0286 
    2.0676 	   10.6400 	    3.0000 	   26.0000 	   17.0596 
    2.3728 	   10.7080 	    3.0000 	   26.0000 	   17.0936 
    2.3270 	   10.7720 	    3.0000 	   26.0000 	   17.1256 
    2.3423 	   10.8320 	    3.0000 	   26.0000 	   17.1556 
    2.3728 	   10.8900 	    3.0000 	   26.0000 	   17.1846 
    2.3728 	   10.9540 	    3.0000 	   26.0000 	   17.2166 
    2.4491 	   11.0140 	    3.0000 	   26.0000 	   17.2466 
    2.2049 	   11.0740 	    3.0000 	   26.0000 	   17.2766 
    2.4948 	   11.2020 	    3.0000 	   26.0000 	   17.3406 
    2.5864 	   11.2560 	    3.0000 	   26.0000 	   17.3676 
    2.3728 	   11.3200 	    3.0000 	   26.0000 	   17.3996 
    2.3423 	   11.3840 	    3.0000 	   26.0000 	   17.4316 
    2.4186 	   11.4420 	    3.0000 	   26.0000 	   17.4606 
    2.5101 	   11.5080 	    3.0000 	   26.0000 	   17.4936 
    2.5101 	   11.5740 	    3.0000 	   26.0000 	   17.5266 
    2.3270 	   11.6360 	    3.0000 	   26.0000 	   17.5576 
    2.3423 	   11.6960 	    3.0000 	   26.0000 	   17.5876 
    2.6017 	   11.7680 	    3.0000 	   26.0000 	   17.6236 
    2.3728 	   11.8300 	    3.0000 	   26.0000 	   17.6546 
    2.4491 	   11.8940 	    3.0000 	   26.0000 	   17.6866 
    2.4796 	   11.9560 	    3.0000 	   26.0000 	   17.7176 
    2.3575 	   12.0100 	    3.0000 	   26.0000 	   17.7446 
    2.5711 	   12.0640 	    3.0000 	   26.0000 	   17.7716 
    2.4186 	   12.1240 	    3.0000 	   26.0000 	   17.8017 
    2.3423 	   12.1760 	    3.0000 	   26.0000 	   17.8277 
    2.4948 	   12.2280 	    3.0000 	   26.0000 	   17.8537 
    2.6017 	   12.2800 	    3.0000 	   26.0000 	   17.8797 
    2.5864 	   12.3400 	    3.0000 	   26.0000 	   17.9097 
    2.4948 	   12.3900 	    3.0000 	   26.0000 	   17.9347 
    2.3423 	   12.4420 	    3.0000 	   26.0000 	   17.9607 
    2.5254 	   12.5040 	    3.0000 	   26.0000 	   17.9917 
    2.4033 	   12.5740 	    3.0000 	   26.0000 	   18.0267 
    2.6322 	   12.6380 	    3.0000 	   26.0000 	   18.0587 
    2.7237 	   12.6960 	    3.0000 	   26.0000 	   18.0877 
    2.6474 	   12.7600 	    3.0000 	   26.0000 	   18.1197 
    2.6017 	   12.8200 	    3.0000 	   26.0000 	   18.1497 
    2.4643 	   12.8800 	    3.0000 	   26.0000 	   18.1797 
    2.5559 	   12.9420 	    3.0000 	   26.0000 	   18.2107 
    2.5711 	   13.0080 	    3.0000 	   26.0000 	   18.2437 
    2.5711 	   13.0700 	    3.0000 	   26.0000 	   18.2747 
    2.6322 	   13.1360 	    3.0000 	   26.0000 	   18.3077 
    2.6627 	   13.1960 	    3.0000 	   26.0000 	   18.3377 
    2.6780 	   13.2560 	    3.0000 	   26.0000 	   18.3677 
    2.6780 	   13.3140 	    3.0000 	   26.0000 	   18.3967 
    2.4796 	   13.3800 	    3.0000 	   26.0000 	   18.4297 
    2.5559 	   13.4440 	    3.0000 	   26.0000 	   18.4617 
    2.6169 	   13.5080 	    3.0000 	   26.0000 	   18.4937 
    2.6322 	   13.5760 	    3.0000 	   26.0000 	   18.5277 
    2.6474 	   13.6440 	    3.0000 	   26.0000 	   18.5617 
    2.6627 	   13.7080 	    3.0000 	   26.0000 	   18.5937 
    2.6474 	   13.7720 	    3.0000 	   26.0000 	   18.6257 
    2.6017 	   13.8400 	    3.0000 	   26.0000 	   18.6597 
    2.7237 	   13.8980 	    3.0000 	   26.0000 	   18.6887 
    2.6627 	   13.9580 	    3.0000 	   26.0000 	   18.7187 
    2.7085 	   14.0120 	    3.0000 	   26.0000 	   18.7457 
    2.5864 	   14.0680 	    3.0000 	   26.0000 	   18.7737 
    2.7237 	   14.1260 	    3.0000 	   26.0000 	   18.8027 
    2.5864 	   14.1780 	    3.0000 	   26.0000 	   18.8287 
    2.6932 	   14.2320 	    3.0000 	   26.0000 	   18.8557 
    2.5864 	   14.2820 	    3.0000 	   26.0000 	   18.8807 
    2.6322 	   14.3400 	    3.0000 	   26.0000 	   18.9097 
    2.4796 	   14.3960 	    3.0000 	   26.0000 	   18.9377 
    2.5711 	   14.4440 	    3.0000 	   26.0000 	   18.9617 
    2.6932 	   14.4960 	    3.0000 	   26.0000 	   18.9877 
    2.6627 	   14.5460 	    3.0000 	   26.0000 	   19.0127 
    2.8153 	   14.5980 	    3.0000 	   26.0000 	   19.0387 
    2.8000 	   14.6560 	    3.0000 	   26.0000 	   19.0677 
    2.8153 	   14.7240 	    3.0000 	   26.0000 	   19.1017 
    2.7848 	   14.7740 	    3.0000 	   26.0000 	   19.1267 
    2.7695 	   14.8260 	    3.0000 	   26.0000 	   19.1527 
    2.8305 	   14.8840 	    3.0000 	   26.0000 	   19.1817 
    2.5864 	   14.9400 	    3.0000 	   26.0000 	   19.2097 
    2.6780 	   14.9920 	    3.0000 	   26.0000 	   19.2357 
    2.5101 	   15.0440 	    3.0000 	   26.0000 	   19.2617 
    2.7085 	   15.0960 	    3.0000 	   26.0000 	   19.2877 
    2.7390 	   15.1560 	    3.0000 	   26.0000 	   19.3177 
    2.5711 	   15.2060 	    3.0000 	   26.0000 	   19.3427 
    2.9526 	   15.2560 	    3.0000 	   26.0000 	   19.3677 
    2.6780 	   15.3160 	    3.0000 	   26.0000 	   19.3977 
    2.8611 	   15.3840 	    3.0000 	   26.0000 	   19.4317 
    2.6322 	   15.4440 	    3.0000 	   26.0000 	   19.4617 
    2.8458 	   15.5060 	    3.0000 	   26.0000 	   19.4927 
    2.9221 	   15.5760 	    3.0000 	   26.0000 	   19.5278 
    2.8000 	   15.6400 	    3.0000 	   26.0000 	   19.5598 
    2.8458 	   15.7000 	    3.0000 	   26.0000 	   19.5898 
    2.8458 	   15.7680 	    3.0000 	   26.0000 	   19.6238 
    2.9221 	   15.8220 	    3.0000 	   26.0000 	   19.6508 
    3.0594 	   15.8840 	    3.0000 	   26.0000 	   19.6818 
    2.8000 	   15.9520 	    3.0000 	   26.0000 	   19.7158 
    2.9374 	   16.0120 	    3.0000 	   26.0000 	   19.7458 
    2.7390 	   16.0660 	    3.0000 	   26.0000 	   19.7728 
    2.8458 	   16.1260 	    3.0000 	   26.0000 	   19.8028 
    2.9068 	   16.1760 	    3.0000 	   26.0000 	   19.8278 
    2.9221 	   16.2300 	    3.0000 	   26.0000 	   19.8548 
    3.0442 	   16.2820 	    3.0000 	   26.0000 	   19.8798 
    3.0137 	   16.3420 	    3.0000 	   26.0000 	   19.9108 
    2.8611 	   16.3940 	    3.0000 	   26.0000 	   19.9368 
    2.8458 	   16.4440 	    3.0000 	   26.0000 	   19.9618 
    2.9221 	   16.4940 	    3.0000 	   26.0000 	   19.9868 
    2.9068 	   16.5540 	    3.0000 	   26.0000 	   20.0168 
    3.0594 	   16.6100 	    3.0000 	   26.0000 	   20.0448 
    2.9679 	   16.6660 	    3.0000 	   26.0000 	   20.0728 
    2.9679 	   16.7260 	    3.0000 	   26.0000 	   20.1028 
    3.0289 	   16.7800 	    3.0000 	   26.0000 	   20.1298 
    2.8611 	   16.8340 	    3.0000 	   26.0000 	   20.1568 
    3.1052 	   16.8860 	    3.0000 	   26.0000 	   20.1828 
    2.9526 	   16.9440 	    3.0000 	   26.0000 	   20.2118 
    3.1205 	   17.0020 	    3.0000 	   26.0000 	   20.2408 
    2.8305 	   17.0540 	    3.0000 	   26.0000 	   20.2668 
    2.9984 	   17.1180 	    3.0000 	   26.0000 	   20.2988 
    2.9374 	   17.1780 	    3.0000 	   26.0000 	   20.3288 
    3.1968 	   17.2400 	    3.0000 	   26.0000 	   20.3598 
    2.9831 	   17.3020 	    3.0000 	   26.0000 	   20.3908 
    3.0137 	   17.3600 	    3.0000 	   26.0000 	   20.4198 
    3.1815 	   17.4280 	    3.0000 	   26.0000 	   20.4538 
    2.7237 	   17.4880 	    3.0000 	   26.0000 	   20.4838 
    3.0747 	   17.5440 	    3.0000 	   26.0000 	   20.5118 
    3.1662 	   17.6100 	    3.0000 	   26.0000 	   20.5448 
    2.9679 	   17.6800 	    3.0000 	   26.0000 	   20.5798 
    3.0137 	   17.7400 	    3.0000 	   26.0000 	   20.6098 
    2.7543 	   17.8040 	    3.0000 	   26.0000 	   20.6418 
    3.0289 	   17.8600 	    3.0000 	   26.0000 	   20.6698 
    3.2273 	   17.9240 	    3.0000 	   26.0000 	   20.7018 
    3.0594 	   17.9820 	    3.0000 	   26.0000 	   20.7308 
    3.0594 	   18.0460 	    3.0000 	   26.0000 	   20.7628 
    3.1205 	   18.1040 	    3.0000 	   26.0000 	   20.7918 
    3.0747 	   18.1700 	    3.0000 	   26.0000 	   20.8248 
    3.0747 	   18.2220 	    3.0000 	   26.0000 	   20.8508 
    3.1815 	   18.2780 	    3.0000 	   26.0000 	   20.8788 
    3.0594 	   18.3300 	    3.0000 	   26.0000 	   20.9048 
    3.0900 	   18.3940 	    3.0000 	   26.0000 	   20.9368 
    3.1205 	   18.4460 	    3.0000 	   26.0000 	   20.9628 
    3.2273 	   18.4960 	    3.0000 	   26.0000 	   20.9878 
    3.2120 	   18.5460 	    3.0000 	   26.0000 	   21.0128 
    3.0289 	   18.5980 	    3.0000 	   26.0000 	   21.0388 
    3.0900 	   18.6620 	    3.0000 	   26.0000 	   21.0708 
    3.2120 	   18.7240 	    3.0000 	   26.0000 	   21.1018 
    3.2120 	   18.7820 	    3.0000 	   26.0000 	   21.1308 
    3.3799 	   18.8360 	    3.0000 	   26.0000 	   21.1578 
    3.1205 	   18.8960 	    3.0000 	   26.0000 	   21.1878 
    3.2425 	   18.9540 	    3.0000 	   26.0000 	   21.2168 
    3.2120 	   19.0120 	    3.0000 	   26.0000 	   21.2458 
    3.2425 	   19.0740 	    3.0000 	   26.0000 	   21.2768 
    3.3036 	   19.1420 	    3.0000 	   26.0000 	   21.3109 
    3.2425 	   19.2040 	    3.0000 	   26.0000 	   21.3419 
    3.3341 	   19.2600 	    3.0000 	   26.0000 	   21.3699 
    3.3799 	   19.3200 	    3.0000 	   26.0000 	   21.3999 
    3.2120 	   19.3920 	    3.0000 	   26.0000 	   21.4359 
    2.9831 	   19.4520 	    3.0000 	   26.0000 	   21.4659 
    3.2578 	   19.5160 	    3.0000 	   26.0000 	   21.4969 
    3.1510 	   19.5740 	    3.0000 	   26.0000 	   21.5269 
    3.2883 	   19.6440 	    3.0000 	   26.0000 	   21.5619 
    3.1815 	   19.7100 	    3.0000 	   26.0000 	   21.5949 
    3.3036 	   19.7760 	    3.0000 	   26.0000 	   21.6279 
    3.1968 	   19.8420 	    3.0000 	   26.0000 	   21.6609 
    3.2273 	   19.9040 	    3.0000 	   26.0000 	   21.6919 
    3.1815 	   19.9620 	    3.0000 	   26.0000 	   21.7209 
    3.2273 	   20.0220 	    3.0000 	   26.0000 	   21.7509 
    3.2120 	   20.0820 	    3.0000 	   26.0000 	   21.7809 
    3.2273 	   20.1440 	    3.0000 	   26.0000 	   21.8119 
    3.3646 	   20.2000 	    3.0000 	   26.0000 	   21.8399 
    3.2425 	   20.2580 	    3.0000 	   26.0000 	   21.8689 
    3.3646 	   20.3160 	    3.0000 	   26.0000 	   21.8979 
    3.2425 	   20.3740 	    3.0000 	   26.0000 	   21.9269 
    3.4257 	   20.4320 	    3.0000 	   26.0000 	   21.9559 
    3.2578 	   20.4840 	    3.0000 	   26.0000 	   21.9819 
    3.3799 	   20.5500 	    3.0000 	   26.0000 	   22.0149 
    3.3799 	   20.6120 	    3.0000 	   26.0000 	   22.0459 
    3.4104 	   20.6820 	    3.0000 	   26.0000 	   22.0809 
    3.2578 	   20.7400 	    3.0000 	   26.0000 	   22.1099 
    3.5019 	   20.8040 	    3.0000 	   26.0000 	   22.1419 
    3.5325 	   20.8660 	    3.0000 	   26.0000 	   22.1729 
    3.4257 	   20.9880 	    3.0000 	   26.0000 	   22.2339 
    3.5630 	   21.0500 	    3.0000 	   26.0000 	   22.2649 
    3.4104 	   21.1160 	    3.0000 	   26.0000 	   22.2979 
    3.5172 	   21.1860 	    3.0000 	   26.0000 	   22.3329 
    3.3494 	   21.2540 	    3.0000 	   26.0000 	   22.3669 
    3.5325 	   21.3160 	    3.0000 	   26.0000 	   22.3979 
    3.4562 	   21.3840 	    3.0000 	   26.0000 	   22.4319 
    3.3494 	   21.4480 	    3.0000 	   26.0000 	   22.4639 
    3.4867 	   21.5080 	    3.0000 	   26.0000 	   22.4939 
    3.6851 	   21.5700 	    3.0000 	   26.0000 	   22.5249 
    3.4562 	   21.6400 	    3.0000 	   26.0000 	   22.5599 
    3.5019 	   21.7080 	    3.0000 	   26.0000 	   22.5939 
    3.5782 	   21.7780 	    3.0000 	   26.0000 	   22.6289 
    3.5325 	   21.8400 	    3.0000 	   26.0000 	   22.6599 
    3.4867 	   21.8980 	    3.0000 	   26.0000 	   22.6889 
    3.5172 	   21.9600 	    3.0000 	   26.0000 	   22.7199 
    3.5782 	   22.0200 	    3.0000 	   26.0000 	   22.7499 
    3.5782 	   22.0740 	    3.0000 	   26.0000 	   22.7769 
    3.2578 	   22.1400 	    3.0000 	   26.0000 	   22.8099 
    3.6851 	   22.1940 	    3.0000 	   26.0000 	   22.8369 
    3.5935 	   22.2460 	    3.0000 	   26.0000 	   22.8629 
    3.6851 	   22.3000 	    3.0000 	   26.0000 	   22.8899 
    3.5935 	   22.3560 	    3.0000 	   26.0000 	   22.9179 
    3.6088 	   22.4100 	    3.0000 	   26.0000 	   22.9449 
    3.5477 	   22.4620 	    3.0000 	   26.0000 	   22.9709 
    3.7308 	   22.5140 	    3.0000 	   26.0000 	   22.9969 
    3.5172 	   22.5660 	    3.0000 	   26.0000 	   23.0229 
    3.6545 	   22.6880 	    3.0000 	   26.0000 	   23.0840 
    3.6851 	   22.7480 	    3.0000 	   26.0000 	   23.1140 
    3.7003 	   22.8100 	    3.0000 	   26.0000 	   23.1450 
    3.7766 	   22.8720 	    3.0000 	   26.0000 	   23.1760 
    3.5935 	   22.9360 	    3.0000 	   26.0000 	   23.2080 
    3.7156 	   22.9980 	    3.0000 	   26.0000 	   23.2390 
    3.6851 	   23.0600 	    3.0000 	   26.0000 	   23.2700 
    3.3494 	   23.1220 	    3.0000 	   26.0000 	   23.3010 
    3.5935 	   23.1920 	    3.0000 	   26.0000 	   23.3360 
    3.5172 	   23.2520 	    3.0000 	   26.0000 	   23.3660 
    3.6088 	   23.3160 	    3.0000 	   26.0000 	   23.3980 
    3.5477 	   23.3780 	    3.0000 	   26.0000 	   23.4290 
    3.5782 	   23.4400 	    3.0000 	   26.0000 	   23.4600 
    3.5172 	   23.5060 	    3.0000 	   26.0000 	   23.4930 
    3.8224 	   23.5700 	    3.0000 	   26.0000 	   23.5250 
